time (s)	det(V)
1974.168914	0.030084	
1974.170583	0.024420	
1974.172182	0.050463	
1974.173808	0.044787	
1974.175436	0.051994	
1974.177049	0.056159	
1974.178730	0.060949	
1974.180330	0.039304	
1974.181992	0.053057	
1974.183595	0.042930	
1974.185262	0.036638	
1974.186836	0.037053	
1974.188541	0.062576	
1974.190100	0.054407	
1974.191811	0.063728	
1974.193366	0.069295	
1974.195040	0.062665	
1974.196593	0.047764	
1974.198317	0.048964	
1974.199836	0.053855	
1974.201588	0.046709	
1974.203064	0.045923	
1974.204837	0.059950	
1974.206325	0.068619	
1974.208103	0.062745	
1974.209589	0.075108	
1974.211093	0.086021	
1974.212693	0.068659	
1974.214243	0.056485	
1974.215836	0.067027	
1974.217333	0.059414	
1974.218989	0.061920	
1974.220479	0.066697	
1974.222121	0.089534	
1974.223647	0.083258	
1974.225290	0.084381	
1974.226775	0.092200	
1974.228492	0.091717	
1974.229978	0.084885	
1974.231698	0.077030	
1974.233179	0.082722	
1974.234896	0.077034	
1974.236383	0.071418	
1974.238094	0.091818	
1974.239576	0.098501	
1974.241348	0.093228	
1974.242828	0.108370	
1974.244574	0.108805	
1974.246090	0.100918	
1974.247858	0.081747	
1974.249368	0.105981	
1974.251117	0.086118	
1974.252632	0.087596	
1974.254375	0.099488	
1974.255904	0.117941	
1974.257625	0.110940	
1974.259169	0.119150	
1974.260895	0.124141	
1974.262442	0.112970	
1974.264128	0.103242	
1974.265692	0.116717	
1974.267389	0.098174	
1974.268957	0.103778	
1974.270604	0.107709	
1974.272206	0.121700	
1974.273841	0.122320	
1974.275463	0.125007	
1974.277108	0.135517	
1974.278722	0.132367	
1974.280344	0.111299	
1974.282024	0.118981	
1974.283622	0.117772	
1974.285301	0.105115	
1974.286881	0.119919	
1974.288548	0.119045	
1974.290136	0.134848	
1974.291806	0.122538	
1974.293378	0.140157	
1974.295080	0.132584	
1974.296632	0.115911	
1974.298344	0.109180	
1974.299887	0.113208	
1974.301628	0.107895	
1974.303140	0.110263	
1974.304907	0.110694	
1974.306410	0.117095	
1974.308206	0.100225	
1974.309686	0.117438	
1974.311475	0.116004	
1974.312964	0.097312	
1974.314749	0.097034	
1974.316235	0.100612	
1974.317726	0.089945	
1974.319316	0.074460	
1974.320863	0.083326	
1974.322454	0.084401	
1974.323952	0.080409	
1974.325622	0.082798	
1974.327112	0.093719	
1974.328747	0.084337	
1974.330272	0.060816	
1974.331899	0.056272	
1974.333378	0.055446	
1974.335026	0.038410	
1974.336519	0.039615	
1974.338231	0.050757	
1974.339727	0.044626	
1974.341443	0.036799	
1974.342933	0.044541	
1974.344623	0.036956	
1974.346114	0.025097	
1974.347792	0.000177	
1974.349302	0.001821	
1974.351018	-0.026816	
1974.352547	-0.030059	
1974.354251	-0.036730	
1974.355804	-0.031965	
1974.357494	-0.047740	
1974.359061	-0.048642	
1974.360744	-0.056062	
1974.362313	-0.067092	
1974.363976	-0.092752	
1974.365555	-0.099979	
1974.367198	-0.119303	
1974.368812	-0.134606	
1974.370437	-0.143457	
1974.372065	-0.135617	
1974.373686	-0.152544	
1974.375331	-0.166946	
1974.376929	-0.174257	
1974.378578	-0.190942	
1974.380167	-0.218822	
1974.381852	-0.240201	
1974.383403	-0.252962	
1974.385088	-0.277817	
1974.386623	-0.293552	
1974.388325	-0.298261	
1974.389868	-0.309592	
1974.391576	-0.341037	
1974.393071	-0.355946	
1974.394855	-0.373316	
1974.396333	-0.410675	
1974.398111	-0.441560	
1974.399594	-0.453847	
1974.401386	-0.505204	
1974.402872	-0.525998	
1974.404659	-0.556460	
1974.406148	-0.577641	
1974.407897	-0.624381	
1974.409399	-0.650243	
1974.411148	-0.691397	
1974.412660	-0.742403	
1974.414401	-0.802699	
1974.415929	-0.841121	
1974.417626	-0.903246	
1974.419172	-0.956041	
1974.420875	-1.008345	
1974.422439	-1.057877	
1974.424130	-1.125807	
1974.425692	-1.184193	
1974.427359	-1.253299	
1974.428967	-1.326606	
1974.430465	-1.417312	
1974.432102	-1.489483	
1974.433635	-1.570863	
1974.435279	-1.626329	
1974.436757	-1.630056	
1974.438409	-1.630112	
1974.439881	-1.630136	
1974.441520	-1.630051	
1974.442998	-1.630156	
1974.444640	-1.630068	
1974.446116	-1.630124	
1974.447817	-1.630052	
1974.449321	-1.630104	
1974.450970	-1.630036	
1974.452510	-1.630144	
1974.454132	-1.630031	
1974.455711	-1.630156	
1974.457320	-1.630035	
1974.458906	-1.630104	
1974.460561	-1.630044	
1974.462159	-1.630112	
1974.463802	-1.630060	
1974.465414	-1.630189	
1974.467016	-1.630080	
1974.468686	-1.630128	
1974.470281	-1.630084	
1974.471949	-1.630124	
1974.473543	-1.630048	
1974.475202	-1.630217	
1974.476788	-1.630088	
1974.478496	-1.630172	
1974.480054	-1.630124	
1974.481761	-1.630189	
1974.483308	-1.630136	
1974.485001	-1.630144	
1974.486552	-1.630100	
1974.488244	-1.630176	
1974.489753	-1.630176	
1974.491523	-1.630225	
1974.493003	-1.630305	
1974.494778	-1.630229	
1974.496264	-1.630414	
1974.498047	-1.630209	
1974.499533	-1.630314	
1974.501308	-1.630305	
1974.502796	-1.630301	
1974.504561	-1.630305	
1974.506072	-1.630402	
1974.507827	-1.630422	
1974.509343	-1.630523	
1974.511091	-1.630563	
1974.512609	-1.630583	
1974.514338	-1.630620	
1974.515874	-1.630575	
1974.517573	-1.630607	
1974.519128	-1.630640	
1974.520842	-1.630539	
1974.522400	-1.630612	
1974.524078	-1.630579	
1974.525655	-1.630632	
1974.527328	-1.630591	
1974.528917	-1.630724	
1974.530579	-1.630523	
1974.532181	-1.630664	
1974.533816	-1.630475	
1974.535437	-1.630676	
1974.537068	-1.630567	
1974.538704	-1.630611	
1974.540204	-1.630571	
1974.541840	-1.630583	
1974.543337	-1.630595	
1974.544978	-1.630607	
1974.546461	-1.630579	
1974.548106	-1.630595	
1974.549590	-1.630773	
1974.551217	-1.630620	
1974.552714	-1.630656	
1974.554388	-1.630604	
1974.555904	-1.630668	
1974.557541	-1.630567	
1974.559102	-1.630732	
1974.560692	-1.630527	
1974.562285	-1.630628	
1974.563850	-1.630628	
1974.565464	-1.630680	
1974.566997	-1.630591	
1974.568659	-1.630664	
1974.570274	-1.630607	
1974.571939	-1.630664	
1974.573547	-1.630471	
1974.575229	-1.630551	
1974.576810	-1.630322	
1974.578505	-1.630374	
1974.580069	-1.630257	
1974.581772	-1.630354	
1974.583344	-1.630293	
1974.585027	-1.630261	
1974.586602	-1.630180	
1974.588321	-1.630225	
1974.589858	-1.630136	
1974.591586	-1.630269	
1974.593098	-1.630168	
1974.594861	-1.630036	
1974.596348	-1.630092	
1974.598136	-1.630168	
1974.599630	-1.630261	
1974.601403	-1.630116	
1974.602890	-1.630176	
1974.604676	-1.630124	
1974.606158	-1.630136	
1974.607907	-1.630092	
1974.609409	-1.630108	
1974.611161	-1.630068	
1974.612667	-1.630088	
1974.614397	-1.630100	
1974.615918	-1.630205	
1974.617651	-1.630011	
1974.619179	-1.630039	
1974.620883	-1.630076	
1974.622432	-1.630128	
1974.624128	-1.630044	
1974.625685	-1.630096	
1974.627364	-1.629987	
1974.628946	-1.606260	
1974.630612	-1.329039	
1974.632201	-1.063440	
1974.633870	-0.802494	
1974.635469	-0.539751	
1974.637111	-0.281745	
1974.638744	-0.005438	
1974.640362	0.257156	
1974.642005	0.525833	
1974.643605	0.779436	
1974.645261	1.037623	
1974.646739	1.250209	
1974.648361	1.486483	
1974.649844	1.618354	
1974.651487	1.625142	
1974.652981	1.625093	
1974.654616	1.625089	
1974.656116	1.625133	
1974.657702	1.625117	
1974.659236	1.625258	
1974.660787	1.625133	
1974.662357	1.625109	
1974.663952	1.625162	
1974.665548	1.625190	
1974.667104	1.625270	
1974.668727	1.625097	
1974.670247	1.625206	
1974.671936	1.625186	
1974.673412	1.625294	
1974.675139	1.625121	
1974.676703	1.625306	
1974.678399	1.625222	
1974.679958	1.625222	
1974.681643	1.625154	
1974.683198	1.625206	
1974.684926	1.625121	
1974.686456	1.625153	
1974.688200	1.625170	
1974.689680	1.625222	
1974.691468	1.625270	
1974.692957	1.625170	
1974.694718	1.625198	
1974.696203	1.625153	
1974.697975	1.625242	
1974.699472	1.625222	
1974.701267	1.625230	
1974.702753	1.625105	
1974.704515	1.625238	
1974.706022	1.625194	
1974.707767	1.625242	
1974.709281	1.625137	
1974.711027	1.625258	
1974.712561	1.625198	
1974.714277	1.625278	
1974.715813	1.625157	
1974.717517	1.625303	
1974.719069	1.625250	
1974.720756	1.625290	
1974.722320	1.625194	
1974.724004	1.625294	
1974.725589	1.625190	
1974.727245	1.625387	
1974.728831	1.625202	
1974.730481	1.625270	
1974.732083	1.625174	
1974.733711	1.625391	
1974.735326	1.625286	
1974.736917	1.625270	
1974.738593	1.625303	
1974.740180	1.625331	
1974.741863	1.625250	
1974.743461	1.625359	
1974.745126	1.625125	
1974.746703	1.625291	
1974.748408	1.625222	
1974.749953	1.625226	
1974.751677	1.625202	
1974.753162	1.625182	
1974.754734	1.625202	
1974.756230	1.625202	
1974.757850	1.625254	
1974.759354	1.625218	
1974.760936	1.625303	
1974.762494	1.625266	
1974.764019	1.625290	
1974.765653	1.625230	
1974.767141	1.625222	
1974.768781	1.625141	
1974.770321	1.625158	
1974.771999	1.625210	
1974.773477	1.625206	
1974.775184	1.625254	
1974.776660	1.625198	
1974.778369	1.625282	
1974.779848	1.625190	
1974.781559	1.625198	
1974.783081	1.625210	
1974.784849	1.625154	
1974.786329	1.625101	
1974.788128	1.625137	
1974.789614	1.625137	
1974.791385	1.625178	
1974.792871	1.625101	
1974.794623	1.625198	
1974.796112	1.625206	
1974.797891	1.625206	
1974.799388	1.625149	
1974.801148	1.625238	
1974.802650	1.625125	
1974.804398	1.625198	
1974.805910	1.625198	
1974.807628	1.625282	
1974.809161	1.625125	
1974.810864	1.625242	
1974.812420	1.625069	
1974.814113	1.625242	
1974.815666	1.625133	
1974.817355	1.625198	
1974.818933	1.625145	
1974.820604	1.625286	
1974.822190	1.625182	
1974.823851	1.625210	
1974.825465	1.625170	
1974.827112	1.625194	
1974.828723	1.625073	
1974.830353	1.625202	
1974.831966	1.625194	
1974.833571	1.625161	
1974.835266	1.625121	
1974.836838	1.625137	
1974.838514	1.625190	
1974.840103	1.625202	
1974.841764	1.625162	
1974.843331	1.625149	
1974.845022	1.625081	
1974.846578	1.625137	
1974.848288	1.625166	
1974.849813	1.625170	
1974.851561	1.625121	
1974.853074	1.625133	
1974.854831	1.625021	
1974.856310	1.624992	
1974.858063	1.615244	
1974.859557	1.544394	
1974.861059	1.480573	
1974.862642	1.423512	
1974.864192	1.354019	
1974.865744	1.314933	
1974.867235	1.261888	
1974.868904	1.214361	
1974.870397	1.176084	
1974.872026	1.138045	
1974.873554	1.093427	
1974.875192	1.054981	
1974.876680	1.017030	
1974.878424	0.982657	
1974.879895	0.926840	
1974.881622	0.869090	
1974.883104	0.842999	
1974.884815	0.787714	
1974.886298	0.751741	
1974.887999	0.738464	
1974.889485	0.705762	
1974.891186	0.660661	
1974.892692	0.637289	
1974.894446	0.614855	
1974.895963	0.582330	
1974.897690	0.538478	
1974.899205	0.525261	
1974.900938	0.484184	
1974.902473	0.453476	
1974.904174	0.440686	
1974.905717	0.434982	
1974.907425	0.405205	
1974.908997	0.395835	
1974.910692	0.384072	
1974.912261	0.354315	
1974.913930	0.320368	
1974.915514	0.316993	
1974.917158	0.287284	
1974.918754	0.269479	
1974.920378	0.258787	
1974.922007	0.260600	
1974.923626	0.244628	
1974.925293	0.231890	
1974.926901	0.224652	
1974.928552	0.213976	
1974.930152	0.194334	
1974.931832	0.174165	
1974.933403	0.168037	
1974.935104	0.160972	
1974.936655	0.148718	
1974.938338	0.152138	
1974.939903	0.146160	
1974.941606	0.137620	
1974.943154	0.131815	
1974.944884	0.138574	
1974.946395	0.113486	
1974.948158	0.111794	
1974.949644	0.111794	
1974.951437	0.090875	
1974.952925	0.086190	
1974.954695	0.095504	
1974.956174	0.095769	
1974.957957	0.093203	
1974.959441	0.102303	
1974.961226	0.097514	
1974.962722	0.088760	
1974.964466	0.073634	
1974.965974	0.077243	
1974.967705	0.052956	
1974.969232	0.063950	
1974.970781	0.065348	
1974.972376	0.087459	
1974.973867	0.073658	
1974.975530	0.074770	
1974.977023	0.075519	
1974.978691	0.075555	
1974.980176	0.058906	
1974.981799	0.054991	
1974.983280	0.060022	
1974.984920	0.046040	
1974.986411	0.044872	
1974.988124	0.062600	
1974.989627	0.064498	
1974.991339	0.056989	
1974.992829	0.066737	
1974.994522	0.072780	
1974.996009	0.055784	
1974.997679	0.039413	
1974.999206	0.044505	
1975.000916	0.029902	
1975.002450	0.035429	
1975.004148	0.035526	
1975.005715	0.042592	
1975.007406	0.035566	
1975.008973	0.045093	
1975.010665	0.048952	
1975.012239	0.036509	
1975.013896	0.027550	
1975.015488	0.030587	
1975.017137	0.012331	
1975.018761	0.012359	
1975.020391	0.019763	
1975.022031	0.027348	
1975.023676	0.021874	
1975.025286	0.030084	
1975.026902	0.031606	
1975.028592	0.019940	
1975.030186	0.008117	
1975.031863	0.000890	
1975.033433	-0.010143	
1975.035119	-0.013664	
1975.036698	-0.019864	
1975.038368	0.000564	
1975.039912	0.000616	
1975.041620	-0.005926	
1975.043171	0.003932	
1975.044906	0.002248	
1975.046425	-0.017048	
1975.048183	-0.023936	
1975.049667	-0.020999	
1975.051434	-0.029000	
1975.052926	-0.035074	
1975.054715	-0.020311	
1975.056198	-0.017028	
1975.057974	-0.021966	
1975.059461	-0.009648	
1975.061256	-0.011041	
1975.062739	-0.021487	
1975.064496	-0.036359	
1975.065997	-0.027348	
1975.067744	-0.043723	
1975.069253	-0.042817	
1975.070998	-0.029777	
1975.072513	-0.017475	
1975.074247	-0.026015	
1975.075787	-0.014731	
1975.077321	-0.018575	
1975.078927	-0.019058	
1975.080404	-0.034281	
1975.082028	-0.029306	
1975.083550	-0.035139	
1975.085203	-0.040573	
1975.086682	-0.032678	
1975.088344	-0.022107	
1975.089813	-0.013116	
1975.091461	-0.016363	
1975.092946	-0.006683	
1975.094667	-0.006248	
1975.096151	-0.014735	
1975.097847	-0.026462	
1975.099356	-0.018091	
1975.101003	-0.033665	
1975.102533	-0.023147	
1975.104187	-0.017334	
1975.105729	0.001031	
1975.107340	-0.004632	
1975.108900	0.006006	
1975.110543	0.009978	
1975.112143	0.003190	
1975.113791	-0.005982	
1975.115400	0.001704	
1975.117009	-0.009301	
1975.118642	-0.016987	
1975.120259	-0.006087	
1975.121901	0.012053	
1975.123504	0.013141	
1975.125168	0.020492	
1975.126750	0.024412	
1975.128440	0.023973	
1975.130003	0.010127	
1975.131722	0.015082	
1975.133299	0.016275	
1975.135006	0.004737	
1975.136554	0.016790	
1975.138255	0.016992	
1975.139789	0.029435	
1975.141534	0.028509	
1975.143044	0.039453	
1975.144820	0.035264	
1975.146311	0.020827	
1975.148083	0.017838	
1975.149571	0.024895	
1975.151350	0.005958	
1975.152837	0.000189	
1975.154617	0.014502	
1975.156097	0.032533	
1975.157872	0.015259	
1975.159364	0.029294	
1975.161108	0.036243	
1975.162617	0.020077	
1975.164346	0.006071	
1975.165876	0.010877	
1975.167607	-0.004983	
1975.169129	-0.005531	
1975.170838	0.005563	
1975.172386	0.017233	
1975.174076	0.011557	
1975.175626	0.015413	
1975.177315	0.019973	
1975.178898	0.012943	
1975.180552	-0.007271	
1975.182147	-0.001120	
1975.183777	-0.012000	
1975.185365	-0.016621	
1975.186895	-0.005386	
1975.188532	0.005664	
1975.190031	-0.001208	
1975.191675	0.003517	
1975.193165	0.007227	
1975.194803	0.007046	
1975.196285	-0.005647	
1975.197923	-0.018466	
1975.199405	-0.009007	
1975.200984	-0.024190	
1975.202494	-0.030905	
1975.204133	-0.016303	
1975.205691	-0.000242	
1975.207301	-0.010212	
1975.208882	0.000282	
1975.210447	0.000322	
1975.212057	-0.009072	
1975.213591	-0.024287	
1975.215260	-0.016206	
1975.216852	-0.026627	
1975.218513	-0.035453	
1975.220105	-0.028706	
1975.221764	-0.013797	
1975.223335	-0.010457	
1975.225051	-0.013716	
1975.226598	-0.009861	
1975.228294	-0.001929	
1975.229843	-0.021660	
1975.231540	-0.024935	
1975.233062	-0.021434	
1975.234792	-0.033246	
1975.236274	-0.029455	
1975.238081	-0.014554	
1975.239562	-0.003440	
1975.241351	-0.011908	
1975.242832	0.002333	
1975.244612	0.001370	
1975.246094	-0.014280	
1975.247840	-0.025358	
1975.249344	-0.012826	
1975.251102	-0.023437	
1975.252617	-0.021684	
1975.254369	-0.012061	
1975.255886	-0.000350	
1975.257604	-0.011384	
1975.259143	0.001736	
1975.260840	0.007356	
1975.262396	-0.007186	
1975.264090	-0.023868	
1975.265656	-0.012302	
1975.267349	-0.028822	
1975.268915	-0.030591	
1975.270590	-0.024794	
1975.272167	-0.013269	
1975.273831	-0.023807	
1975.275427	-0.011436	
1975.277067	-0.009374	
1975.278693	-0.028549	
1975.280300	-0.040779	
1975.281946	-0.040742	
1975.283563	-0.050821	
1975.285225	-0.059345	
1975.286825	-0.058729	
1975.288506	-0.049286	
1975.290083	-0.055840	
1975.291784	-0.059438	
1975.293354	-0.056549	
1975.295056	-0.071760	
1975.296546	-0.089751	
1975.298101	-0.097618	
1975.299611	-0.103600	
1975.301232	-0.125486	
1975.302737	-0.127174	
1975.304324	-0.124499	
1975.305863	-0.124447	
1975.307412	-0.138868	
1975.309013	-0.141398	
1975.310507	-0.147875	
1975.312144	-0.165528	
1975.313724	-0.193440	
1975.315345	-0.188239	
1975.316871	-0.218552	
1975.318548	-0.236233	
1975.320042	-0.239782	
1975.321784	-0.239504	
1975.323259	-0.254388	
1975.324998	-0.261100	
1975.326544	-0.272596	
1975.328232	-0.291292	
1975.329778	-0.321130	
1975.331505	-0.337231	
1975.333019	-0.350339	
1975.334777	-0.376849	
1975.336275	-0.396072	
1975.338050	-0.396350	
1975.339533	-0.402163	
1975.341322	-0.430627	
1975.342807	-0.433475	
1975.344593	-0.450833	
1975.346076	-0.483398	
1975.347842	-0.512801	
1975.349338	-0.517107	
1975.351088	-0.552355	
1975.352590	-0.573443	
1975.354338	-0.586878	
1975.355851	-0.586680	
1975.357572	-0.616212	
1975.359111	-0.628712	
1975.360832	-0.650445	
1975.362380	-0.681886	
1975.364089	-0.720034	
1975.365642	-0.733976	
1975.367334	-0.769014	
1975.368900	-0.800890	
1975.370585	-0.820847	
1975.372165	-0.828243	
1975.373809	-0.861065	
1975.375417	-0.890899	
1975.377051	-0.909353	
1975.378663	-0.945330	
1975.380285	-0.991796	
1975.381921	-1.016184	
1975.383530	-1.057225	
1975.385187	-1.101081	
1975.386764	-1.135180	
1975.388444	-1.161159	
1975.390017	-1.195343	
1975.391732	-1.236577	
1975.393302	-1.269763	
1975.394984	-1.318296	
1975.396537	-1.379337	
1975.398236	-1.438674	
1975.399793	-1.487582	
1975.401537	-1.563415	
1975.403082	-1.602470	
1975.404807	-1.626704	
1975.406300	-1.630068	
1975.407870	-1.630035	
1975.409380	-1.630128	
1975.410959	-1.630027	
1975.412511	-1.630072	
1975.414054	-1.630044	
1975.415654	-1.630088	
1975.417150	-1.630148	
1975.418808	-1.630096	
1975.420300	-1.630148	
1975.421956	-1.630164	
1975.423458	-1.630088	
1975.425149	-1.630168	
1975.426630	-1.630140	
1975.428334	-1.630136	
1975.429819	-1.630120	
1975.431543	-1.630144	
1975.433031	-1.630084	
1975.434753	-1.630076	
1975.436234	-1.630092	
1975.438010	-1.630132	
1975.439490	-1.630056	
1975.441252	-1.630176	
1975.442736	-1.630096	
1975.444515	-1.630092	
1975.446010	-1.630144	
1975.447776	-1.630112	
1975.449270	-1.630172	
1975.451017	-1.630120	
1975.452535	-1.630168	
1975.454263	-1.630100	
1975.455786	-1.630217	
1975.457519	-1.630185	
1975.459064	-1.630172	
1975.460772	-1.630205	
1975.462329	-1.630229	
1975.464023	-1.630036	
1975.465584	-1.630180	
1975.467255	-1.630120	
1975.468831	-1.630213	
1975.470482	-1.630064	
1975.472082	-1.630342	
1975.473719	-1.630217	
1975.475329	-1.630241	
1975.476970	-1.630168	
1975.478580	-1.630394	
1975.480193	-1.630221	
1975.481857	-1.630370	
1975.483457	-1.630213	
1975.485139	-1.630289	
1975.486716	-1.630217	
1975.488396	-1.630410	
1975.489952	-1.630329	
1975.491640	-1.630479	
1975.493193	-1.630374	
1975.494876	-1.630551	
1975.496418	-1.630483	
1975.498157	-1.630636	
1975.499664	-1.630527	
1975.501429	-1.630636	
1975.502911	-1.630615	
1975.504686	-1.630579	
1975.506169	-1.630660	
1975.507952	-1.630632	
1975.509442	-1.630599	
1975.511235	-1.630571	
1975.512715	-1.630579	
1975.514467	-1.630692	
1975.515991	-1.630704	
1975.517479	-1.630656	
1975.519057	-1.630559	
1975.520550	-1.630652	
1975.522233	-1.630628	
1975.523714	-1.630652	
1975.525325	-1.630636	
1975.526852	-1.630595	
1975.528503	-1.630636	
1975.529985	-1.630644	
1975.531631	-1.630595	
1975.533103	-1.630688	
1975.534810	-1.630672	
1975.536299	-1.630628	
1975.538008	-1.630640	
1975.539504	-1.630652	
1975.541214	-1.630616	
1975.542714	-1.630712	
1975.544358	-1.630547	
1975.545875	-1.630511	
1975.547538	-1.630414	
1975.549070	-1.630422	
1975.550779	-1.630289	
1975.552325	-1.630394	
1975.553996	-1.630342	
1975.555560	-1.630366	
1975.557246	-1.630245	
1975.558829	-1.630321	
1975.560464	-1.630269	
1975.562077	-1.630338	
1975.563721	-1.630104	
1975.565318	-1.630273	
1975.566942	-1.630116	
1975.568593	-1.630301	
1975.570175	-1.630205	
1975.571840	-1.630265	
1975.573416	-1.630104	
1975.575114	-1.630180	
1975.576707	-1.630068	
1975.578385	-1.630265	
1975.579964	-1.630096	
1975.581640	-1.630225	
1975.583206	-1.630168	
1975.584918	-1.630225	
1975.586465	-1.630092	
1975.588175	-1.630132	
1975.589705	-1.630112	
1975.591444	-1.630177	
1975.592930	-1.630156	
1975.594699	-1.630088	
1975.596195	-1.630104	
1975.597989	-1.630052	
1975.599480	-1.630048	
1975.601261	-1.630019	
1975.602745	-1.630213	
1975.604506	-1.630076	
1975.605993	-1.630096	
1975.607729	-1.630108	
1975.609248	-1.630096	
1975.610991	-1.630072	
1975.612513	-1.629939	
1975.614249	-1.511651	
1975.615770	-1.260546	
1975.617495	-1.038356	
1975.619046	-0.808911	
1975.620731	-0.563070	
1975.622290	-0.346472	
1975.623982	-0.125555	
1975.625565	0.102352	
1975.627261	0.342597	
1975.628865	0.545060	
1975.630356	0.721364	
1975.631983	0.938075	
1975.633513	1.122210	
1975.635152	1.317716	
1975.636630	1.503998	
1975.638295	1.619341	
1975.639764	1.625146	
1975.641409	1.625157	
1975.642887	1.625109	
1975.644524	1.625109	
1975.646000	1.625194	
1975.647695	1.625198	
1975.649213	1.625129	
1975.650874	1.625146	
1975.652420	1.625174	
1975.654034	1.625178	
1975.655605	1.625085	
1975.657202	1.625145	
1975.658799	1.625134	
1975.660461	1.625178	
1975.662047	1.625089	
1975.663698	1.625178	
1975.665321	1.625133	
1975.666951	1.625335	
1975.668592	1.625186	
1975.670212	1.625282	
1975.671870	1.625226	
1975.673482	1.625246	
1975.675120	1.625218	
1975.676709	1.625178	
1975.678371	1.625218	
1975.679954	1.625214	
1975.681655	1.625190	
1975.683212	1.625222	
1975.684908	1.625113	
1975.686459	1.625238	
1975.688155	1.625230	
1975.689662	1.625250	
1975.691408	1.625202	
1975.692904	1.625206	
1975.694685	1.625162	
1975.696169	1.625214	
1975.697956	1.625214	
1975.699440	1.625238	
1975.701226	1.625295	
1975.702707	1.625202	
1975.704470	1.625319	
1975.705968	1.625194	
1975.707736	1.625242	
1975.709237	1.625149	
1975.710983	1.625282	
1975.712498	1.625162	
1975.714222	1.625278	
1975.715750	1.625178	
1975.717479	1.625347	
1975.719028	1.625162	
1975.720747	1.625306	
1975.722300	1.625198	
1975.723983	1.625282	
1975.725547	1.625157	
1975.727232	1.625339	
1975.728813	1.625246	
1975.730465	1.625274	
1975.732062	1.625238	
1975.733697	1.625339	
1975.735329	1.625182	
1975.736855	1.625178	
1975.738489	1.625230	
1975.739970	1.625202	
1975.741615	1.625194	
1975.743095	1.625226	
1975.744743	1.625186	
1975.746239	1.625141	
1975.747867	1.625222	
1975.749383	1.625190	
1975.750989	1.625206	
1975.752505	1.625242	
1975.754154	1.625278	
1975.755687	1.625166	
1975.757311	1.625190	
1975.758872	1.625141	
1975.760458	1.625226	
1975.762080	1.625254	
1975.763628	1.625246	
1975.765256	1.625057	
1975.766758	1.625254	
1975.768468	1.625162	
1975.770051	1.625266	
1975.771726	1.625214	
1975.773309	1.625250	
1975.774980	1.625274	
1975.776547	1.625234	
1975.778245	1.625174	
1975.779788	1.625254	
1975.781498	1.625162	
1975.783003	1.625218	
1975.784770	1.625145	
1975.786270	1.625174	
1975.788045	1.625182	
1975.789535	1.625242	
1975.791330	1.625210	
1975.792812	1.625234	
1975.794612	1.625166	
1975.796092	1.625137	
1975.797873	1.625218	
1975.799362	1.625166	
1975.801134	1.625218	
1975.802629	1.625294	
1975.804413	1.625113	
1975.805911	1.625206	
1975.807649	1.625210	
1975.809162	1.625158	
1975.810893	1.625274	
1975.812418	1.625149	
1975.814155	1.625238	
1975.815698	1.625198	
1975.817388	1.625170	
1975.818948	1.625190	
1975.820637	1.625202	
1975.822195	1.625194	
1975.823860	1.625105	
1975.825438	1.625133	
1975.827106	1.625105	
1975.828707	1.625053	
1975.830332	1.625166	
1975.831958	1.625166	
1975.833579	1.625266	
1975.835218	1.625166	
1975.836827	1.625222	
1975.838481	1.625097	
1975.840086	1.625230	
1975.841777	1.625182	
1975.843358	1.625198	
1975.845033	1.625149	
1975.846512	1.625125	
1975.848086	1.625081	
1975.849581	1.625081	
1975.851225	1.625190	
1975.852729	1.625057	
1975.854337	1.625109	
1975.855876	1.625073	
1975.857421	1.625206	
1975.859006	1.625105	
1975.860495	1.623139	
1975.862127	1.575110	
1975.863683	1.479328	
1975.865302	1.421155	
1975.866846	1.369037	
1975.868483	1.313913	
1975.869961	1.267394	
1975.871682	1.232416	
1975.873171	1.185301	
1975.874902	1.132885	
1975.876381	1.093879	
1975.878112	1.047939	
1975.879611	0.992655	
1975.881392	0.941733	
1975.882871	0.914296	
1975.884630	0.851784	
1975.886114	0.825346	
1975.887898	0.793293	
1975.889391	0.772713	
1975.891186	0.719096	
1975.892665	0.698289	
1975.894447	0.669447	
1975.895944	0.620462	
1975.897708	0.581331	
1975.899212	0.555880	
1975.900956	0.511162	
1975.902485	0.481098	
1975.904215	0.466931	
1975.905749	0.458375	
1975.907467	0.425234	
1975.909005	0.415340	
1975.910711	0.392342	
1975.912255	0.375174	
1975.913943	0.331358	
1975.915517	0.316574	
1975.917181	0.293346	
1975.918776	0.275424	
1975.920446	0.260866	
1975.922033	0.256008	
1975.923682	0.234412	
1975.925292	0.231757	
1975.926899	0.218617	
1975.928538	0.199611	
1975.930129	0.173528	
1975.931799	0.161210	
1975.933405	0.152557	
1975.935058	0.127658	
1975.936648	0.127944	
1975.938329	0.126131	
1975.939897	0.130147	
1975.941610	0.116398	
1975.943151	0.119335	
1975.944858	0.112966	
1975.946412	0.086097	
1975.948111	0.078315	
1975.949614	0.080905	
1975.951376	0.066431	
1975.952865	0.060534	
1975.954638	0.069726	
1975.956123	0.077400	
1975.957743	0.061049	
1975.959240	0.068482	
1975.960844	0.064522	
1975.962385	0.054225	
1975.963927	0.052441	
1975.965549	0.048102	
1975.967039	0.030768	
1975.968663	0.028408	
1975.970187	0.033701	
1975.971822	0.045448	
1975.973300	0.042402	
1975.975014	0.047687	
1975.976494	0.045343	
1975.978208	0.040094	
1975.979688	0.031715	
1975.981403	0.020947	
1975.982894	0.033657	
1975.984600	0.007863	
1975.986093	0.006421	
1975.987863	0.018055	
1975.989341	0.032037	
1975.991100	0.016299	
1975.992603	0.034551	
1975.994354	0.033608	
1975.995858	0.026144	
1975.997566	0.011368	
1975.999092	0.014534	
1976.000816	-0.002445	
1976.002358	-0.009974	
1976.004053	0.000447	
1976.005598	0.007654	
1976.007266	0.002087	
1976.008837	0.011880	
1976.010499	0.010732	
1976.012082	0.002772	
1976.013729	-0.013551	
1976.015348	-0.014087	
1976.017000	-0.023473	
1976.018597	-0.024452	
1976.020232	-0.022466	
1976.021844	-0.009418	
1976.023461	-0.010421	
1976.025137	-0.013910	
1976.026725	-0.012032	
1976.028424	-0.013301	
1976.030008	-0.028081	
1976.031681	-0.028758	
1976.033253	-0.034027	
1976.034932	-0.043183	
1976.036489	-0.041834	
1976.038206	-0.029427	
1976.039757	-0.028424	
1976.041480	-0.036355	
1976.043007	-0.021173	
1976.044765	-0.029411	
1976.046276	-0.040356	
1976.048023	-0.050257	
1976.049514	-0.044670	
1976.051304	-0.059949	
1976.052792	-0.054761	
1976.054582	-0.039937	
1976.056072	-0.034877	
1976.057838	-0.043889	
1976.059322	-0.026837	
1976.061062	-0.033455	
1976.062587	-0.047047	
1976.064078	-0.053428	
1976.065645	-0.048303	
1976.067151	-0.054507	
1976.068812	-0.057291	
1976.070303	-0.054749	
1976.071946	-0.032355	
1976.073477	-0.040521	
1976.075118	-0.035687	
1976.076619	-0.031215	
1976.078268	-0.038563	
1976.079757	-0.046128	
1976.081388	-0.049730	
1976.082891	-0.040404	
1976.084608	-0.051868	
1976.086092	-0.050301	
1976.087782	-0.038635	
1976.089269	-0.030196	
1976.090949	-0.032569	
1976.092468	-0.018760	
1976.094137	-0.014772	
1976.095679	-0.026079	
1976.097397	-0.038092	
1976.098963	-0.024907	
1976.100667	-0.037044	
1976.102229	-0.035816	
1976.103893	-0.027666	
1976.105469	-0.005752	
1976.107134	-0.013462	
1976.108717	-0.004653	
1976.110370	0.002788	
1976.111981	-0.007070	
1976.113595	-0.015755	
1976.115216	-0.011980	
1976.116844	-0.011875	
1976.118483	-0.015879	
1976.120092	-0.010848	
1976.121740	0.004766	
1976.123329	0.009386	
1976.125009	0.011283	
1976.126575	0.021064	
1976.128289	0.013999	
1976.129852	-0.002203	
1976.131543	0.004826	
1976.133097	0.003464	
1976.134787	-0.007323	
1976.136309	0.000053	
1976.138059	0.011291	
1976.139536	0.017962	
1976.141316	0.018849	
1976.142800	0.027175	
1976.144563	0.033500	
1976.146049	0.021403	
1976.147808	0.006498	
1976.149293	0.021032	
1976.151058	0.013189	
1976.152553	0.013173	
1976.154308	0.022015	
1976.155817	0.028227	
1976.157548	0.023703	
1976.159069	0.029741	
1976.160772	0.037411	
1976.162315	0.023658	
1976.164016	0.016685	
1976.165578	0.023965	
1976.167280	0.011590	
1976.168835	0.009016	
1976.170520	0.009193	
1976.172132	0.029475	
1976.173613	0.035103	
1976.175255	0.033484	
1976.176786	0.038044	
1976.178424	0.027356	
1976.179902	0.020589	
1976.181560	0.008701	
1976.183036	0.015074	
1976.184672	0.005652	
1976.186152	0.005829	
1976.187775	0.019405	
1976.189275	0.029850	
1976.190950	0.007469	
1976.192470	0.018196	
1976.194092	0.020013	
1976.195635	0.012798	
1976.197241	-0.003948	
1976.198830	0.005958	
1976.200410	0.000798	
1976.202014	-0.007251	
1976.203561	-0.002437	
1976.205201	0.011477	
1976.206823	0.006163	
1976.208467	0.010905	
1976.210058	0.017435	
1976.211728	0.015086	
1976.213310	-0.001059	
1976.214987	-0.003682	
1976.216558	-0.001462	
1976.218242	-0.008411	
1976.219800	-0.000725	
1976.221516	0.010764	
1976.223059	0.024734	
1976.224772	0.026164	
1976.226280	0.022486	
1976.228037	0.029592	
1976.229521	0.012448	
1976.231302	0.006111	
1976.232789	0.019662	
1976.234558	0.006450	
1976.236047	0.011324	
1976.237823	0.028307	
1976.239304	0.047422	
1976.241062	0.025528	
1976.242562	0.039453	
1976.244323	0.042978	
1976.245831	0.032758	
1976.247555	0.024424	
1976.249081	0.031896	
1976.250795	0.020923	
1976.252335	0.019183	
1976.254049	0.030865	
1976.255592	0.051003	
1976.257287	0.034668	
1976.258843	0.044453	
1976.260515	0.047893	
1976.262097	0.037584	
1976.263766	0.029814	
1976.265359	0.038136	
1976.267008	0.023211	
1976.268604	0.024835	
1976.270230	0.028081	
1976.271846	0.042245	
1976.273448	0.035349	
1976.275135	0.035518	
1976.276726	0.040364	
1976.278396	0.030495	
1976.280000	0.013374	
1976.281661	0.000173	
1976.283147	0.002618	
1976.284703	-0.013108	
1976.286212	-0.009946	
1976.287839	-0.001245	
1976.289339	0.005495	
1976.290923	-0.012190	
1976.292464	-0.000306	
1976.294026	-0.006719	
1976.295603	-0.021020	
1976.297097	-0.040779	
1976.298748	-0.038204	
1976.300320	-0.056001	
1976.301920	-0.061907	
1976.303446	-0.063994	
1976.305144	-0.051006	
1976.306619	-0.069214	
1976.308341	-0.070947	
1976.309815	-0.074447	
1976.311541	-0.089171	
1976.313018	-0.106505	
1976.314729	-0.120209	
1976.316217	-0.127021	
1976.317980	-0.141277	
1976.319464	-0.155864	
1976.321243	-0.145044	
1976.322734	-0.149306	
1976.324529	-0.165918	
1976.326006	-0.163920	
1976.327788	-0.172916	
1976.329267	-0.200207	
1976.331013	-0.230118	
1976.332517	-0.226629	
1976.334251	-0.245743	
1976.335773	-0.255593	
1976.337495	-0.265579	
1976.339029	-0.265450	
1976.340740	-0.281640	
1976.342276	-0.285334	
1976.343987	-0.298950	
1976.345539	-0.320598	
1976.347220	-0.347322	
1976.348802	-0.355290	
1976.350480	-0.380173	
1976.352064	-0.391251	
1976.353714	-0.400544	
1976.355301	-0.401494	
1976.356932	-0.417551	
1976.358552	-0.423993	
1976.360152	-0.436130	
1976.361813	-0.457037	
1976.363391	-0.484563	
1976.365056	-0.500313	
1976.366649	-0.524632	
1976.368307	-0.544766	
1976.369881	-0.556520	
1976.371576	-0.564239	
1976.373124	-0.582426	
1976.374831	-0.599648	
1976.376373	-0.611954	
1976.378084	-0.635330	
1976.379592	-0.672113	
1976.381346	-0.700984	
1976.382835	-0.723555	
1976.384620	-0.759028	
1976.386110	-0.782143	
1976.387887	-0.799029	
1976.389374	-0.820528	
1976.391160	-0.859124	
1976.392653	-0.876123	
1976.394243	-0.916181	
1976.395778	-0.953262	
1976.397339	-1.001074	
1976.398948	-1.028116	
1976.400434	-1.086796	
1976.402088	-1.123023	
1976.403585	-1.159125	
1976.405220	-1.185047	
1976.406715	-1.235933	
1976.408425	-1.285614	
1976.409904	-1.326026	
1976.411600	-1.391515	
1976.413082	-1.454924	
1976.414793	-1.516546	
1976.416284	-1.571649	
1976.418013	-1.623820	
1976.419495	-1.629999	
1976.421198	-1.630056	
1976.422676	-1.630092	
1976.424458	-1.629963	
1976.425939	-1.630060	
1976.427711	-1.630124	
1976.429208	-1.630060	
1976.430968	-1.629971	
1976.432485	-1.630076	
1976.434232	-1.630076	
1976.435750	-1.630092	
1976.437477	-1.630027	
1976.439009	-1.630116	
1976.440719	-1.630015	
1976.442267	-1.630213	
1976.443951	-1.629983	
1976.445519	-1.630197	
1976.447193	-1.630072	
1976.448766	-1.630172	
1976.450441	-1.629975	
1976.452024	-1.630176	
1976.453669	-1.630044	
1976.455252	-1.630168	
1976.456874	-1.630084	
1976.458511	-1.630144	
1976.460134	-1.629983	
1976.461812	-1.630189	
1976.463416	-1.630084	
1976.465063	-1.630201	
1976.466654	-1.630080	
1976.468344	-1.630148	
1976.469916	-1.630031	
1976.471613	-1.630172	
1976.473169	-1.630116	
1976.474891	-1.630168	
1976.476455	-1.630080	
1976.478155	-1.630096	
1976.479710	-1.630221	
1976.481432	-1.630249	
1976.482953	-1.630249	
1976.484708	-1.630156	
1976.486185	-1.630213	
1976.487961	-1.630168	
1976.489439	-1.630249	
1976.491190	-1.630148	
1976.492681	-1.630209	
1976.494461	-1.630152	
1976.495952	-1.630144	
1976.497721	-1.630180	
1976.499214	-1.630168	
1976.500962	-1.630205	
1976.502467	-1.630205	
1976.504021	-1.630297	
1976.505589	-1.630249	
1976.507079	-1.630309	
1976.508746	-1.630322	
1976.510238	-1.630281	
1976.511852	-1.630273	
1976.513376	-1.630265	
1976.515013	-1.630317	
1976.516490	-1.630309	
1976.518200	-1.630334	
1976.519671	-1.630337	
1976.521392	-1.630293	
1976.522883	-1.630354	
1976.524580	-1.630301	
1976.526077	-1.630374	
1976.527784	-1.630249	
1976.529266	-1.630406	
1976.531023	-1.630378	
1976.532527	-1.630398	
1976.534279	-1.630434	
1976.535791	-1.630378	
1976.537495	-1.630366	
1976.539023	-1.630426	
1976.540754	-1.630362	
1976.542295	-1.630511	
1976.544004	-1.630487	
1976.545553	-1.630479	
1976.547256	-1.630390	
1976.548821	-1.630511	
1976.550506	-1.630317	
1976.552083	-1.630535	
1976.553764	-1.630338	
1976.555362	-1.630382	
1976.557000	-1.630265	
1976.558590	-1.630523	
1976.560221	-1.630354	
1976.561829	-1.630442	
1976.563455	-1.630269	
1976.565121	-1.630398	
1976.566700	-1.630205	
1976.568370	-1.630378	
1976.569941	-1.630342	
1976.571638	-1.630430	
1976.573209	-1.630229	
1976.574890	-1.630370	
1976.576448	-1.630289	
1976.578180	-1.630394	
1976.579724	-1.630297	
1976.581441	-1.630269	
1976.582980	-1.630185	
1976.584718	-1.630329	
1976.586224	-1.630233	
1976.587965	-1.630281	
1976.589456	-1.630209	
1976.591232	-1.630180	
1976.592722	-1.630245	
1976.594499	-1.630177	
1976.595983	-1.630281	
1976.597757	-1.630237	
1976.599240	-1.630172	
1976.600985	-1.630189	
1976.602495	-1.630193	
1976.604247	-1.630092	
1976.605764	-1.630172	
1976.607502	-1.630092	
1976.609032	-1.630233	
1976.610577	-1.630104	
1976.612191	-1.630140	
1976.613686	-1.630152	
1976.615318	-1.630160	
1976.616850	-1.630164	
1976.618474	-1.630201	
1976.619999	-1.630144	
1976.621645	-1.630116	
1976.623126	-1.630124	
1976.624778	-1.630096	
1976.626258	-1.630056	
1976.627978	-1.630124	
1976.629457	-1.630100	
1976.631161	-1.630036	
1976.632648	-1.630064	
1976.634327	-1.630128	
1976.635828	-1.630140	
1976.637473	-1.630056	
1976.639014	-1.630172	
1976.640657	-1.629979	
1976.642202	-1.630056	
1976.643886	-1.629544	
1976.645450	-1.535612	
1976.647114	-1.357064	
1976.648701	-1.203122	
1976.650354	-1.043456	
1976.651958	-0.887886	
1976.653603	-0.711494	
1976.655221	-0.534292	
1976.656849	-0.385562	
1976.658469	-0.217803	
1976.660080	-0.065404	
1976.661728	0.104978	
1976.663326	0.237925	
1976.665016	0.399690	
1976.666592	0.544923	
1976.668281	0.705460	
1976.669861	0.851591	
1976.671541	1.032366	
1976.673096	1.176298	
1976.674793	1.328742	
1976.676344	1.492328	
1976.678080	1.607127	
1976.679611	1.625085	
1976.681372	1.625041	
1976.682873	1.625137	
1976.684645	1.625133	
1976.686130	1.625153	
1976.687909	1.625166	
1976.689405	1.625093	
1976.691189	1.625133	
1976.692674	1.625182	
1976.694461	1.625206	
1976.695941	1.625154	
1976.697707	1.625218	
1976.699199	1.625182	
1976.700955	1.625125	
1976.702469	1.625158	
1976.704205	1.625178	
1976.705723	1.625145	
1976.707434	1.625129	
1976.708968	1.625190	
1976.710663	1.625218	
1976.712212	1.625129	
1976.713882	1.625210	
1976.715442	1.625121	
1976.717096	1.625182	
1976.718725	1.625121	
1976.720218	1.625242	
1976.721850	1.625198	
1976.723382	1.625202	
1976.725017	1.625218	
1976.726509	1.625166	
1976.728150	1.625218	
1976.729641	1.625145	
1976.731277	1.625137	
1976.732771	1.625154	
1976.734394	1.625286	
1976.735878	1.625158	
1976.737565	1.625194	
1976.739072	1.625069	
1976.740722	1.625242	
1976.742263	1.625222	
1976.743906	1.625327	
1976.745488	1.625274	
1976.747068	1.625174	
1976.748679	1.625214	
1976.750236	1.625278	
1976.751860	1.625250	
1976.753486	1.625355	
1976.755132	1.625238	
1976.756750	1.625270	
1976.758400	1.625230	
1976.760002	1.625270	
1976.761686	1.625214	
1976.763252	1.625306	
1976.764943	1.625178	
1976.766493	1.625319	
1976.768211	1.625137	
1976.769780	1.625299	
1976.771466	1.625202	
1976.773027	1.625194	
1976.774746	1.625246	
1976.776253	1.625230	
1976.777995	1.625218	
1976.779485	1.625291	
1976.781251	1.625198	
1976.782735	1.625238	
1976.784488	1.625282	
1976.785974	1.625154	
1976.787761	1.625226	
1976.789248	1.625178	
1976.791019	1.625198	
1976.792515	1.625202	
1976.794279	1.625286	
1976.795789	1.625198	
1976.797526	1.625141	
1976.799052	1.625186	
1976.800801	1.625198	
1976.802338	1.625190	
1976.804050	1.625266	
1976.805594	1.625250	
1976.807279	1.625250	
1976.808824	1.625202	
1976.810514	1.625270	
1976.812075	1.625053	
1976.813735	1.625226	
1976.815332	1.625093	
1976.816998	1.625290	
1976.818591	1.625178	
1976.820226	1.625222	
1976.821822	1.625089	
1976.823463	1.625290	
1976.825129	1.625097	
1976.826712	1.625299	
1976.828376	1.625157	
1976.829853	1.625198	
1976.831426	1.625162	
1976.832925	1.625186	
1976.834560	1.625230	
1976.836037	1.625146	
1976.837675	1.625226	
1976.839186	1.625145	
1976.840759	1.625194	
1976.842316	1.625166	
1976.843847	1.625109	
1976.845440	1.625125	
1976.847028	1.625194	
1976.848643	1.625202	
1976.850217	1.625270	
1976.851847	1.625065	
1976.853368	1.625141	
1976.855066	1.625141	
1976.856556	1.625210	
1976.858286	1.625246	
1976.859759	1.625258	
1976.861498	1.625129	
1976.863038	1.625234	
1976.864760	1.625109	
1976.866316	1.625246	
1976.868040	1.625166	
1976.869568	1.625210	
1976.871319	1.625194	
1976.872809	1.625210	
1976.874589	1.625065	
1976.876076	1.625158	
1976.877857	1.625182	
1976.879344	1.625153	
1976.881096	1.625149	
1976.882577	1.625133	
1976.884349	1.625154	
1976.885850	1.625186	
1976.887617	1.625149	
1976.889124	1.625141	
1976.890865	1.625101	
1976.892387	1.625162	
1976.894097	1.625101	
1976.895632	1.625093	
1976.897336	1.625153	
1976.898889	1.625145	
1976.900594	1.625206	
1976.902155	1.625198	
1976.903838	1.625282	
1976.905410	1.625081	
1976.907079	1.625246	
1976.908662	1.625202	
1976.910304	1.625238	
1976.911906	1.625105	
1976.913536	1.625166	
1976.915148	1.625008	
1976.916774	1.624856	
1976.918425	1.611937	
1976.920027	1.534738	
1976.921679	1.494414	
1976.923260	1.450119	
1976.924955	1.407270	
1976.926519	1.373935	
1976.928221	1.329253	
1976.929806	1.268994	
1976.931498	1.245468	
1976.933050	1.200979	
1976.934761	1.162880	
1976.936319	1.128695	
1976.938036	1.114081	
1976.939519	1.090656	
1976.941095	1.068395	
1976.942599	1.049724	
1976.944205	1.031379	
1976.945734	0.985504	
1976.947285	0.955058	
1976.948878	0.946712	
1976.950376	0.907931	
1976.952032	0.891040	
1976.953514	0.873553	
1976.955151	0.877368	
1976.956661	0.847812	
1976.958360	0.838471	
1976.959837	0.823175	
1976.961561	0.804524	
1976.963045	0.773538	
1976.964753	0.746581	
1976.966248	0.733324	
1976.967973	0.715615	
1976.969472	0.704340	
1976.971196	0.707663	
1976.972679	0.691659	
1976.974459	0.675372	
1976.975944	0.674269	
1976.977716	0.650171	
1976.979194	0.626468	
1976.980940	0.603273	
1976.982443	0.600357	
1976.984184	0.573979	
1976.985708	0.557592	
1976.987442	0.558361	
1976.988968	0.556255	
1976.990673	0.530941	
1976.992219	0.529869	
1976.993942	0.516108	
1976.995509	0.494231	
1976.997187	0.457368	
1976.998764	0.462238	
1977.000450	0.432835	
1977.002028	0.425254	
1977.003691	0.417358	
1977.005290	0.419401	
1977.006941	0.401023	
1977.008553	0.398679	
1977.010176	0.390751	
1977.011796	0.363894	
1977.013423	0.338194	
1977.015077	0.337283	
1977.016672	0.312308	
1977.018329	0.291079	
1977.019921	0.288758	
1977.021609	0.295852	
1977.023181	0.274643	
1977.024883	0.273982	
1977.026447	0.272121	
1977.028155	0.253353	
1977.029717	0.221231	
1977.031386	0.220168	
1977.032945	0.202524	
1977.034668	0.184811	
1977.036170	0.174733	
1977.037925	0.188654	
1977.039405	0.178209	
1977.041205	0.170648	
1977.042687	0.168275	
1977.044473	0.154720	
1977.045966	0.136645	
1977.047740	0.133390	
1977.049216	0.127215	
1977.050987	0.108434	
1977.052481	0.102303	
1977.054073	0.111121	
1977.055621	0.113788	
1977.057159	0.100273	
1977.058779	0.106336	
1977.060263	0.105010	
1977.061894	0.083455	
1977.063413	0.073900	
1977.065083	0.080994	
1977.066559	0.077573	
1977.068274	0.058318	
1977.069756	0.067914	
1977.071468	0.074899	
1977.072946	0.071128	
1977.074643	0.083660	
1977.076158	0.088772	
1977.077871	0.074520	
1977.079365	0.064739	
1977.081069	0.056248	
1977.082557	0.063104	
1977.084310	0.047393	
1977.085805	0.052960	
1977.087549	0.064586	
1977.089069	0.077900	
1977.090805	0.068135	
1977.092326	0.081618	
1977.094047	0.074754	
1977.095581	0.069779	
1977.097291	0.051216	
1977.098835	0.067092	
1977.100525	0.050076	
1977.102092	0.056598	
1977.103754	0.065489	
1977.105333	0.079902	
1977.106987	0.069900	
1977.108588	0.087608	
1977.110234	0.084095	
1977.111839	0.074762	
1977.113459	0.059700	
1977.115080	0.062173	
1977.116688	0.051063	
1977.118356	0.056360	
1977.119940	0.064888	
1977.121622	0.082875	
1977.123216	0.070999	
1977.124883	0.074355	
1977.126447	0.071370	
1977.128136	0.068792	
1977.129696	0.053960	
1977.131404	0.063140	
1977.132958	0.048380	
1977.134685	0.044557	
1977.136203	0.039490	
1977.137956	0.052348	
1977.139445	0.054366	
1977.141232	0.049899	
1977.142726	0.053468	
1977.144516	0.040432	
1977.145996	0.033657	
1977.147785	0.022889	
1977.149264	0.019280	
1977.151038	0.005563	
1977.152535	-0.001043	
1977.154262	0.009845	
1977.155775	0.023143	
1977.157516	0.013153	
1977.159052	0.016347	
1977.160550	0.009455	
1977.162162	-0.012335	
1977.163655	-0.029278	
1977.165313	-0.029733	
1977.166811	-0.037137	
1977.168440	-0.046567	
1977.169965	-0.039856	
1977.171599	-0.029330	
1977.173081	-0.039570	
1977.174728	-0.038241	
1977.176211	-0.041125	
1977.177926	-0.042958	
1977.179414	-0.063120	
1977.181127	-0.066604	
1977.182611	-0.070193	
1977.184294	-0.082439	
1977.185802	-0.082645	
1977.187475	-0.071382	
1977.189006	-0.066185	
1977.190716	-0.082254	
1977.192266	-0.076776	
1977.193965	-0.073670	
1977.195518	-0.091016	
1977.197203	-0.106883	
1977.198770	-0.099624	
1977.200455	-0.110215	
1977.202037	-0.113715	
1977.203703	-0.108648	
1977.205301	-0.095769	
1977.206943	-0.102005	
1977.208554	-0.095866	
1977.210180	-0.094327	
1977.211784	-0.106412	
1977.213419	-0.125393	
1977.215095	-0.112914	
1977.216684	-0.123484	
1977.218362	-0.129921	
1977.219954	-0.124850	
1977.221622	-0.104458	
1977.223207	-0.112124	
1977.224870	-0.114312	
1977.226437	-0.100748	
1977.228133	-0.110577	
1977.229672	-0.127806	
1977.231378	-0.121426	
1977.232888	-0.126900	
1977.234621	-0.134348	
1977.236108	-0.132649	
1977.237881	-0.116330	
1977.239375	-0.113466	
1977.241148	-0.119653	
1977.242636	-0.111230	
1977.244418	-0.117659	
1977.245900	-0.130372	
1977.247699	-0.142941	
1977.249181	-0.132987	
1977.250949	-0.151042	
1977.252446	-0.156778	
1977.254205	-0.142107	
1977.255718	-0.135400	
1977.257447	-0.147964	
1977.258981	-0.140971	
1977.260703	-0.143191	
1977.262241	-0.167070	
1977.263952	-0.184880	
1977.265502	-0.176118	
1977.267211	-0.194870	
1977.268808	-0.201452	
1977.270305	-0.205505	
1977.271972	-0.204715	
1977.273466	-0.216151	
1977.275116	-0.212498	
1977.276613	-0.216631	
1977.278241	-0.237506	
1977.279735	-0.259428	
1977.281380	-0.267013	
1977.282878	-0.281426	
1977.284520	-0.298688	
1977.286005	-0.304251	
1977.287713	-0.304476	
1977.289196	-0.305951	
1977.290885	-0.333082	
1977.292388	-0.329891	
1977.294030	-0.345698	
1977.295568	-0.373671	
1977.297184	-0.399013	
1977.298755	-0.400818	
1977.300343	-0.429302	
1977.301943	-0.441625	
1977.303583	-0.444996	
1977.305188	-0.453625	
1977.306818	-0.479865	
1977.308428	-0.486101	
1977.310055	-0.501111	
1977.311740	-0.537193	
1977.313321	-0.564863	
1977.314991	-0.574289	
1977.316572	-0.599990	
1977.318246	-0.629864	
1977.319823	-0.647113	
1977.321515	-0.650251	
1977.323087	-0.674413	
1977.324804	-0.690176	
1977.326341	-0.704964	
1977.328057	-0.734298	
1977.329602	-0.765767	
1977.331322	-0.792193	
1977.332827	-0.814885	
1977.334575	-0.844690	
1977.336062	-0.861803	
1977.337843	-0.871011	
1977.339326	-0.890005	
1977.341094	-0.917442	
1977.342582	-0.930095	
1977.344359	-0.959606	
1977.345834	-0.997734	
1977.347575	-1.029216	
1977.349080	-1.048334	
1977.350814	-1.084972	
1977.352341	-1.107619	
1977.354087	-1.120574	
1977.355620	-1.135221	
1977.357333	-1.171383	
1977.358878	-1.180974	
1977.360596	-1.209966	
1977.362147	-1.247301	
1977.363841	-1.288531	
1977.365416	-1.301848	
1977.367101	-1.341346	
1977.368684	-1.379833	
1977.370357	-1.412873	
1977.371940	-1.424337	
1977.373600	-1.460576	
1977.375198	-1.495840	
1977.376823	-1.522113	
1977.378446	-1.572962	
1977.379969	-1.610933	
1977.381603	-1.629137	
1977.383084	-1.629947	
1977.384723	-1.630104	
1977.386210	-1.630168	
1977.387844	-1.629955	
1977.389331	-1.630193	
1977.390954	-1.630052	
1977.392473	-1.630128	
1977.394119	-1.630088	
1977.395648	-1.630076	
1977.397274	-1.630084	
1977.398829	-1.630221	
1977.400428	-1.629979	
1977.402010	-1.630072	
1977.403598	-1.630104	
1977.405202	-1.630225	
1977.406737	-1.630064	
1977.408403	-1.630132	
1977.409997	-1.630096	
1977.411677	-1.630088	
1977.413261	-1.630112	
1977.414930	-1.630120	
1977.416520	-1.630056	
1977.418186	-1.630148	
1977.419751	-1.630044	
1977.421462	-1.630104	
1977.422997	-1.630015	
1977.424713	-1.630112	
1977.426255	-1.630052	
1977.427983	-1.630116	
1977.429499	-1.630011	
1977.431255	-1.630108	
1977.432745	-1.630096	
1977.434523	-1.630176	
1977.436006	-1.630116	
1977.437794	-1.630120	
1977.439286	-1.630116	
1977.441057	-1.630156	
1977.442539	-1.630156	
1977.444289	-1.630197	
1977.445785	-1.630128	
1977.447542	-1.630193	
1977.449046	-1.630148	
1977.450808	-1.630184	
1977.452327	-1.630245	
1977.454047	-1.630120	
1977.455575	-1.630164	
1977.457306	-1.630100	
1977.458850	-1.630104	
1977.460548	-1.630188	
1977.462112	-1.630269	
1977.463789	-1.630088	
1977.465358	-1.630221	
1977.467020	-1.630084	
1977.468609	-1.630326	
1977.470268	-1.630168	
1977.471859	-1.630164	
1977.473491	-1.630120	
1977.475116	-1.630277	
1977.476732	-1.630132	
1977.478376	-1.630229	
1977.479990	-1.630072	
1977.481642	-1.630265	
1977.483245	-1.630172	
1977.484923	-1.630277	
1977.486405	-1.630313	
1977.487981	-1.630265	
1977.489463	-1.630334	
1977.491103	-1.630193	
1977.492581	-1.630289	
1977.494203	-1.630209	
1977.495711	-1.630289	
1977.497296	-1.630201	
1977.498849	-1.630201	
1977.500359	-1.630201	
1977.501993	-1.630257	
1977.503570	-1.630241	
1977.505198	-1.630269	
1977.506736	-1.630277	
1977.508403	-1.630309	
1977.509903	-1.630337	
1977.511626	-1.630334	
1977.513101	-1.630261	
1977.514803	-1.630406	
1977.516277	-1.630281	
1977.517980	-1.630221	
1977.519512	-1.630233	
1977.521256	-1.630201	
1977.522735	-1.630136	
1977.524511	-1.630249	
1977.526001	-1.630233	
1977.527772	-1.630305	
1977.529258	-1.630342	
1977.531024	-1.630317	
1977.532505	-1.630285	
1977.534296	-1.630189	
1977.535798	-1.630277	
1977.537568	-1.630233	
1977.539068	-1.630285	
1977.540816	-1.630237	
1977.542328	-1.630253	
1977.544058	-1.630144	
1977.545590	-1.630297	
1977.547295	-1.630164	
1977.548844	-1.630277	
1977.550554	-1.630164	
1977.552105	-1.630225	
1977.553800	-1.630172	
1977.555370	-1.630229	
1977.557036	-1.630164	
1977.558614	-1.630273	
1977.560267	-1.630112	
1977.561872	-1.630237	
1977.563510	-1.630072	
1977.565122	-1.630209	
1977.566748	-1.630136	
1977.568375	-1.630309	
1977.569991	-1.630136	
1977.571648	-1.630225	
1977.573243	-1.630128	
1977.574931	-1.630269	
1977.576513	-1.630112	
1977.578188	-1.630205	
1977.579773	-1.630039	
1977.581446	-1.630176	
1977.582993	-1.630144	
1977.584703	-1.630148	
1977.586237	-1.630156	
1977.587958	-1.630205	
1977.589447	-1.630120	
1977.591195	-1.630092	
1977.592675	-1.630160	
1977.594461	-1.630128	
1977.595946	-1.630140	
1977.597548	-1.630188	
1977.599075	-1.630164	
1977.600642	-1.630076	
1977.602192	-1.630197	
1977.603713	-1.630160	
1977.605356	-1.630116	
1977.606857	-1.630044	
1977.608489	-1.630144	
1977.610011	-1.630060	
1977.611655	-1.630132	
1977.613146	-1.630072	
1977.614852	-1.630060	
1977.616337	-1.630035	
1977.618079	-1.630080	
1977.619551	-1.630092	
1977.621264	-1.630088	
1977.622749	-1.630048	
1977.624453	-1.630072	
1977.625934	-1.630036	
1977.627711	-1.630036	
1977.629201	-1.629580	
1977.630986	-1.533593	
1977.632484	-1.374708	
1977.634253	-1.241939	
1977.635748	-1.118072	
1977.637502	-0.962494	
1977.639007	-0.827554	
1977.640743	-0.702756	
1977.642269	-0.570676	
1977.643994	-0.437391	
1977.645537	-0.332574	
1977.647256	-0.211587	
1977.648810	-0.075805	
1977.650500	0.051063	
1977.652057	0.172295	
1977.653744	0.305580	
1977.655315	0.449061	
1977.656969	0.568287	
1977.658565	0.707873	
1977.660217	0.835748	
1977.661830	0.944287	
1977.663474	1.057785	
1977.665080	1.190135	
1977.666711	1.300040	
1977.668355	1.430815	
1977.669950	1.549473	
1977.671624	1.620831	
1977.673214	1.625097	
1977.674886	1.625137	
1977.676466	1.625162	
1977.678152	1.625133	
1977.679717	1.625190	
1977.681428	1.625141	
1977.682970	1.625049	
1977.684680	1.625117	
1977.686224	1.625158	
1977.687946	1.625133	
1977.689459	1.625206	
1977.691201	1.625202	
1977.692690	1.625198	
1977.694452	1.625206	
1977.695938	1.625153	
1977.697739	1.625262	
1977.699219	1.625202	
1977.700990	1.625210	
1977.702471	1.625234	
1977.704216	1.625133	
1977.705730	1.625097	
1977.707291	1.625194	
1977.708849	1.625170	
1977.710375	1.625262	
1977.712000	1.625089	
1977.713495	1.625165	
1977.715136	1.625065	
1977.716660	1.625137	
1977.718290	1.625101	
1977.719773	1.625186	
1977.721415	1.625137	
1977.722887	1.625186	
1977.724594	1.625105	
1977.726095	1.625105	
1977.727813	1.625226	
1977.729302	1.625230	
1977.731016	1.625250	
1977.732497	1.625174	
1977.734176	1.625214	
1977.735686	1.625206	
1977.737422	1.625254	
1977.738943	1.625202	
1977.740649	1.625186	
1977.742187	1.625198	
1977.743916	1.625323	
1977.745465	1.625202	
1977.747152	1.625214	
1977.748714	1.625218	
1977.750395	1.625270	
1977.751963	1.625214	
1977.753637	1.625149	
1977.755229	1.625270	
1977.756852	1.625266	
1977.758455	1.625222	
1977.760082	1.625222	
1977.761690	1.625142	
1977.763302	1.625266	
1977.764959	1.625149	
1977.766561	1.625266	
1977.768245	1.625166	
1977.769833	1.625218	
1977.771526	1.625178	
1977.773114	1.625206	
1977.774800	1.625198	
1977.776358	1.625218	
1977.778074	1.625121	
1977.779621	1.625226	
1977.781332	1.625198	
1977.782878	1.625198	
1977.784611	1.625174	
1977.786120	1.625170	
1977.787877	1.625214	
1977.789358	1.625214	
1977.791121	1.625234	
1977.792612	1.625294	
1977.794390	1.625238	
1977.795879	1.625182	
1977.797655	1.625162	
1977.799136	1.625246	
1977.800901	1.625230	
1977.802398	1.625230	
1977.804141	1.625210	
1977.805671	1.625254	
1977.807414	1.625214	
1977.808931	1.625206	
1977.810648	1.625210	
1977.812183	1.625206	
1977.813884	1.625290	
1977.815481	1.625242	
1977.816962	1.625166	
1977.818637	1.625182	
1977.820127	1.625190	
1977.821760	1.625202	
1977.823292	1.625065	
1977.824940	1.625166	
1977.826422	1.625145	
1977.828073	1.625146	
1977.829556	1.625174	
1977.831198	1.625210	
1977.832697	1.625158	
1977.834410	1.625206	
1977.835901	1.625137	
1977.837603	1.625174	
1977.839097	1.625085	
1977.840766	1.625206	
1977.842276	1.625182	
1977.843922	1.625137	
1977.845467	1.625053	
1977.847161	1.625295	
1977.848715	1.625081	
1977.850423	1.625319	
1977.852006	1.625162	
1977.853687	1.625153	
1977.855266	1.625133	
1977.856930	1.625222	
1977.858518	1.625089	
1977.860177	1.625077	
1977.861785	1.625073	
1977.863408	1.625214	
1977.865044	1.625121	
1977.866635	1.625182	
1977.868296	1.625153	
1977.869901	1.625166	
1977.871544	1.625145	
1977.873135	1.625250	
1977.874813	1.625117	
1977.876380	1.625149	
1977.878084	1.625154	
1977.879626	1.625162	
1977.881335	1.625190	
1977.882875	1.625137	
1977.884599	1.625085	
1977.886113	1.625214	
1977.887871	1.625125	
1977.889358	1.625238	
1977.891149	1.625182	
1977.892637	1.625053	
1977.894415	1.625105	
1977.895899	1.625157	
1977.897672	1.625206	
1977.899156	1.625178	
1977.900926	1.625158	
1977.902427	1.625121	
1977.904204	1.625141	
1977.905698	1.625105	
1977.907459	1.625190	
1977.908970	1.625125	
1977.910708	1.625198	
1977.912233	1.625125	
1977.913962	1.625142	
1977.915513	1.625093	
1977.917216	1.625214	
1977.918768	1.625105	
1977.920465	1.625246	
1977.922028	1.625097	
1977.923706	1.625129	
1977.925305	1.625134	
1977.926802	1.625077	
1977.928432	1.624815	
1977.929951	1.611127	
1977.931594	1.548321	
1977.933074	1.500908	
1977.934731	1.457680	
1977.936207	1.428757	
1977.937850	1.408833	
1977.939338	1.390508	
1977.940973	1.355574	
1977.942474	1.339658	
1977.944153	1.314240	
1977.945676	1.261187	
1977.947315	1.232690	
1977.948862	1.224658	
1977.950499	1.175508	
1977.952052	1.152986	
1977.953656	1.141062	
1977.955240	1.135326	
1977.956896	1.097464	
1977.958488	1.085334	
1977.960115	1.070079	
1977.961725	1.034316	
1977.963347	0.999056	
1977.965003	0.985653	
1977.966618	0.952388	
1977.968287	0.929072	
1977.969890	0.925317	
1977.971566	0.921148	
1977.973140	0.891822	
1977.974831	0.872776	
1977.976394	0.861879	
1977.978093	0.822071	
1977.979654	0.795601	
1977.981342	0.782957	
1977.982887	0.759705	
1977.984582	0.730037	
1977.986091	0.708151	
1977.987856	0.707176	
1977.989337	0.694414	
1977.991129	0.673572	
1977.992618	0.655351	
1977.994390	0.628752	
1977.995880	0.598580	
1977.997642	0.584425	
1977.999132	0.575160	
1978.000916	0.538490	
1978.002409	0.518332	
1978.004141	0.517083	
1978.005648	0.515089	
1978.007386	0.488664	
1978.008911	0.486859	
1978.010632	0.465469	
1978.012173	0.438281	
1978.013910	0.410027	
1978.015458	0.403501	
1978.017148	0.380797	
1978.018697	0.371057	
1978.020378	0.363890	
1978.021951	0.363149	
1978.023620	0.329585	
1978.025211	0.329497	
1978.026866	0.319929	
1978.028464	0.302595	
1978.030113	0.277443	
1978.031726	0.278039	
1978.033355	0.252938	
1978.034987	0.240793	
1978.036480	0.240495	
1978.038146	0.242247	
1978.039625	0.231963	
1978.041270	0.217110	
1978.042747	0.222915	
1978.044390	0.211584	
1978.045873	0.193452	
1978.047498	0.179824	
1978.049004	0.185005	
1978.050580	0.165435	
1978.052141	0.163522	
1978.053749	0.163570	
1978.055331	0.171164	
1978.056915	0.159824	
1978.058520	0.167385	
1978.060068	0.158599	
1978.061691	0.138272	
1978.063187	0.124991	
1978.064885	0.133176	
1978.066370	0.119452	
1978.068100	0.113091	
1978.069671	0.114280	
1978.071381	0.130449	
1978.072927	0.123613	
1978.074639	0.123480	
1978.076182	0.130155	
1978.077882	0.124781	
1978.079375	0.108293	
1978.081154	0.100031	
1978.082644	0.101735	
1978.084408	0.093840	
1978.085888	0.097373	
1978.087670	0.110602	
1978.089155	0.120805	
1978.090933	0.112789	
1978.092417	0.114831	
1978.094170	0.107238	
1978.095670	0.105502	
1978.097427	0.100495	
1978.098949	0.100805	
1978.100685	0.084683	
1978.102216	0.090073	
1978.103933	0.092474	
1978.105468	0.112237	
1978.107163	0.093828	
1978.108723	0.110767	
1978.110432	0.103004	
1978.112005	0.096382	
1978.113676	0.075438	
1978.115246	0.091967	
1978.116915	0.070395	
1978.118514	0.070109	
1978.120179	0.074484	
1978.121791	0.084095	
1978.123430	0.067031	
1978.125045	0.077537	
1978.126666	0.086524	
1978.128331	0.064957	
1978.129934	0.042567	
1978.131604	0.052823	
1978.133204	0.034885	
1978.134895	0.024972	
1978.136479	0.031667	
1978.138164	0.043353	
1978.139729	0.031010	
1978.141438	0.030337	
1978.143009	0.042044	
1978.144698	0.024512	
1978.146191	0.010526	
1978.147756	-0.002916	
1978.149248	-0.011803	
1978.150866	-0.023646	
1978.152372	-0.023239	
1978.153956	-0.013076	
1978.155489	-0.007170	
1978.157017	-0.025439	
1978.158638	-0.021644	
1978.160134	-0.019384	
1978.161777	-0.035763	
1978.163321	-0.052392	
1978.165006	-0.046064	
1978.166486	-0.063103	
1978.168199	-0.073468	
1978.169670	-0.068630	
1978.171381	-0.058173	
1978.172853	-0.065061	
1978.174575	-0.066427	
1978.176055	-0.065722	
1978.177760	-0.069928	
1978.179239	-0.087962	
1978.181029	-0.091584	
1978.182523	-0.095801	
1978.184305	-0.108567	
1978.185781	-0.108994	
1978.187554	-0.097006	
1978.189049	-0.096873	
1978.190815	-0.101489	
1978.192322	-0.098782	
1978.194081	-0.103588	
1978.195604	-0.113735	
1978.197343	-0.126799	
1978.198871	-0.114215	
1978.200595	-0.132717	
1978.202124	-0.132685	
1978.203826	-0.124854	
1978.205384	-0.114316	
1978.207088	-0.125325	
1978.208648	-0.116169	
1978.210311	-0.112785	
1978.211903	-0.125220	
1978.213558	-0.138949	
1978.215141	-0.127919	
1978.216794	-0.141942	
1978.218409	-0.143263	
1978.220034	-0.138876	
1978.221667	-0.126630	
1978.223286	-0.133426	
1978.224964	-0.124930	
1978.226562	-0.123315	
1978.228213	-0.134977	
1978.229804	-0.151312	
1978.231482	-0.142792	
1978.233059	-0.154671	
1978.234755	-0.162591	
1978.236318	-0.159646	
1978.238018	-0.146188	
1978.239573	-0.153334	
1978.241270	-0.154140	
1978.242817	-0.150643	
1978.244542	-0.157761	
1978.246044	-0.174974	
1978.247819	-0.177850	
1978.249308	-0.188711	
1978.251078	-0.197992	
1978.252560	-0.200691	
1978.254331	-0.196638	
1978.255824	-0.195402	
1978.257412	-0.208969	
1978.258952	-0.204884	
1978.260508	-0.215402	
1978.262105	-0.233957	
1978.263616	-0.252970	
1978.265262	-0.248036	
1978.266758	-0.268201	
1978.268391	-0.281563	
1978.269914	-0.282510	
1978.271539	-0.277249	
1978.273025	-0.297810	
1978.274750	-0.298921	
1978.276235	-0.305987	
1978.277963	-0.323019	
1978.279445	-0.347857	
1978.281147	-0.355942	
1978.282630	-0.375629	
1978.284333	-0.394908	
1978.285812	-0.404947	
1978.287590	-0.409321	
1978.289068	-0.414446	
1978.290827	-0.429741	
1978.292336	-0.436779	
1978.294095	-0.452638	
1978.295607	-0.479567	
1978.297335	-0.509288	
1978.298855	-0.515387	
1978.300564	-0.545471	
1978.302106	-0.557995	
1978.303801	-0.565806	
1978.305363	-0.570764	
1978.307029	-0.603708	
1978.308607	-0.607366	
1978.310288	-0.625308	
1978.311866	-0.657245	
1978.313512	-0.688541	
1978.315109	-0.695671	
1978.316765	-0.727547	
1978.318386	-0.744401	
1978.320010	-0.758746	
1978.321643	-0.760547	
1978.323249	-0.790896	
1978.324896	-0.802345	
1978.326481	-0.819308	
1978.328151	-0.851647	
1978.329742	-0.878025	
1978.331432	-0.895612	
1978.332996	-0.924862	
1978.334679	-0.947360	
1978.336228	-0.970297	
1978.337922	-0.976457	
1978.339450	-0.997086	
1978.341166	-1.019181	
1978.342672	-1.031093	
1978.344456	-1.062932	
1978.345936	-1.092061	
1978.347714	-1.113532	
1978.349203	-1.133094	
1978.350985	-1.168027	
1978.352465	-1.188761	
1978.354250	-1.205881	
1978.355737	-1.218961	
1978.357510	-1.250205	
1978.359005	-1.263402	
1978.360750	-1.293509	
1978.362277	-1.333700	
1978.363779	-1.368859	
1978.365376	-1.389287	
1978.366865	-1.433780	
1978.368516	-1.469668	
1978.370000	-1.487316	
1978.371663	-1.503409	
1978.373160	-1.541876	
1978.374802	-1.569212	
1978.376284	-1.595138	
1978.377945	-1.623763	
1978.379429	-1.630116	
1978.381137	-1.629979	
1978.382618	-1.630072	
1978.384308	-1.629963	
1978.385796	-1.630044	
1978.387490	-1.629943	
1978.389004	-1.630152	
1978.390678	-1.629971	
1978.392197	-1.630144	
1978.393847	-1.629979	
1978.395407	-1.630176	
1978.397095	-1.630003	
1978.398655	-1.630112	
1978.400348	-1.629959	
1978.401927	-1.630128	
1978.403596	-1.630040	
1978.405185	-1.630108	
1978.406856	-1.630023	
1978.408440	-1.630180	
1978.410078	-1.630011	
1978.411691	-1.630180	
1978.413333	-1.629951	
1978.414979	-1.630088	
1978.416581	-1.630056	
1978.418253	-1.630140	
1978.419835	-1.629963	
1978.421522	-1.630056	
1978.423117	-1.630003	
1978.424783	-1.630064	
1978.426356	-1.630027	
1978.428081	-1.630136	
1978.429641	-1.629975	
1978.431356	-1.630140	
1978.432897	-1.630076	
1978.434614	-1.630088	
1978.436157	-1.630031	
1978.437868	-1.630120	
1978.439370	-1.630051	
1978.441170	-1.630116	
1978.442664	-1.630132	
1978.444449	-1.630088	
1978.445928	-1.630088	
1978.447692	-1.630184	
1978.449181	-1.630088	
1978.450961	-1.630056	
1978.452447	-1.630148	
1978.454234	-1.630128	
1978.455715	-1.630088	
1978.457491	-1.630104	
1978.458984	-1.630205	
1978.460738	-1.630080	
1978.462256	-1.630180	
1978.463972	-1.630172	
1978.465507	-1.630164	
1978.467236	-1.630019	
1978.468783	-1.630269	
1978.470494	-1.630072	
1978.472065	-1.630177	
1978.473560	-1.630245	
1978.475224	-1.630176	
1978.476715	-1.630233	
1978.478354	-1.630193	
1978.479874	-1.630209	
1978.481515	-1.630185	
1978.482996	-1.630144	
1978.484647	-1.630144	
1978.486128	-1.630213	
1978.487768	-1.630205	
1978.489253	-1.630201	
1978.490966	-1.630152	
1978.492446	-1.630233	
1978.494115	-1.630120	
1978.495643	-1.630253	
1978.497298	-1.630140	
1978.498837	-1.630269	
1978.500446	-1.630144	
1978.502011	-1.630249	
1978.503700	-1.630120	
1978.505265	-1.630309	
1978.506933	-1.630136	
1978.508504	-1.630205	
1978.510156	-1.630156	
1978.511759	-1.630257	
1978.513382	-1.630128	
1978.515012	-1.630305	
1978.516632	-1.630168	
1978.518275	-1.630180	
1978.519874	-1.630136	
1978.521514	-1.630386	
1978.523105	-1.630096	
1978.524799	-1.630229	
1978.526363	-1.630217	
1978.528067	-1.630285	
1978.529623	-1.630056	
1978.531344	-1.630233	
1978.532899	-1.630172	
1978.534608	-1.630253	
1978.536171	-1.630237	
1978.537901	-1.630269	
1978.539407	-1.630144	
1978.541155	-1.630209	
1978.542642	-1.630172	
1978.544429	-1.630205	
1978.545915	-1.630281	
1978.547704	-1.630221	
1978.549201	-1.630221	
1978.550989	-1.630193	
1978.552479	-1.630237	
1978.554267	-1.630209	
1978.555753	-1.630281	
1978.557533	-1.630152	
1978.559022	-1.630241	
1978.560763	-1.630237	
1978.562285	-1.630168	
1978.564025	-1.630201	
1978.565545	-1.630193	
1978.567284	-1.630213	
1978.568818	-1.630197	
1978.570529	-1.630185	
1978.572072	-1.630217	
1978.573756	-1.630112	
1978.575317	-1.630193	
1978.576985	-1.630036	
1978.578563	-1.630297	
1978.580226	-1.630088	
1978.581827	-1.630285	
1978.583324	-1.630180	
1978.584954	-1.630197	
1978.586481	-1.630144	
1978.588102	-1.630229	
1978.589600	-1.630269	
1978.591250	-1.630156	
1978.592739	-1.630205	
1978.594376	-1.630144	
1978.595860	-1.630156	
1978.597490	-1.630176	
1978.598983	-1.630156	
1978.600640	-1.630056	
1978.602168	-1.630168	
1978.603805	-1.630072	
1978.605370	-1.630225	
1978.606956	-1.630108	
1978.608553	-1.630225	
1978.610113	-1.630044	
1978.611719	-1.630120	
1978.613252	-1.630104	
1978.614932	-1.630144	
1978.616532	-1.630040	
1978.618186	-1.630205	
1978.619793	-1.629975	
1978.621481	-1.630160	
1978.623049	-1.629955	
1978.624759	-1.630124	
1978.626315	-1.630092	
1978.628019	-1.630144	
1978.629573	-1.630048	
1978.631267	-1.630088	
1978.632834	-1.630015	
1978.634557	-1.630092	
1978.636085	-1.630088	
1978.637830	-1.630039	
1978.639319	-1.630064	
1978.641103	-1.630040	
1978.642584	-1.630019	
1978.644339	-1.630044	
1978.645825	-1.630056	
1978.647606	-1.629919	
1978.649082	-1.619368	
1978.650872	-1.495272	
1978.652364	-1.403716	
1978.654126	-1.277102	
1978.655625	-1.175492	
1978.657362	-1.082704	
1978.658874	-0.974455	
1978.660611	-0.871648	
1978.662143	-0.787976	
1978.663871	-0.692948	
1978.665414	-0.583575	
1978.667128	-0.486843	
1978.668669	-0.392729	
1978.670357	-0.273551	
1978.671928	-0.161403	
1978.673608	-0.060501	
1978.675204	0.060659	
1978.676885	0.172098	
1978.678482	0.266220	
1978.680135	0.348551	
1978.681728	0.449665	
1978.683383	0.545708	
1978.685000	0.652205	
1978.686606	0.764406	
1978.688281	0.892813	
1978.689862	0.985722	
1978.691528	1.107111	
1978.693009	1.214708	
1978.694572	1.305285	
1978.696080	1.396824	
1978.697716	1.499015	
1978.699207	1.591271	
1978.700822	1.621721	
1978.702347	1.625105	
1978.703933	1.625113	
1978.705474	1.625194	
1978.707015	1.625182	
1978.708595	1.625089	
1978.710191	1.625069	
1978.711806	1.625157	
1978.713355	1.625158	
1978.714979	1.625105	
1978.716515	1.625105	
1978.718214	1.625194	
1978.719690	1.625125	
1978.721415	1.625013	
1978.722891	1.625206	
1978.724626	1.625137	
1978.726175	1.625242	
1978.727900	1.625117	
1978.729442	1.625218	
1978.731169	1.625174	
1978.732694	1.625093	
1978.734463	1.625149	
1978.735950	1.625242	
1978.737732	1.625198	
1978.739215	1.625206	
1978.740996	1.625157	
1978.742486	1.625206	
1978.744248	1.625206	
1978.745740	1.625113	
1978.747515	1.625218	
1978.749005	1.625202	
1978.750750	1.625137	
1978.752265	1.625129	
1978.753994	1.625182	
1978.755520	1.625153	
1978.757228	1.625149	
1978.758760	1.625206	
1978.760468	1.625262	
1978.762017	1.625174	
1978.763702	1.625222	
1978.765266	1.625133	
1978.766955	1.625270	
1978.768540	1.625202	
1978.770217	1.625174	
1978.771805	1.625141	
1978.773460	1.625266	
1978.775061	1.625202	
1978.776705	1.625331	
1978.778330	1.625145	
1978.779957	1.625218	
1978.781591	1.625157	
1978.783183	1.625218	
1978.784859	1.625109	
1978.786428	1.625262	
1978.788115	1.625109	
1978.789695	1.625254	
1978.791363	1.625226	
1978.792924	1.625190	
1978.794623	1.625182	
1978.796173	1.625178	
1978.797892	1.625153	
1978.799400	1.625206	
1978.801151	1.625274	
1978.802634	1.625234	
1978.804195	1.625146	
1978.805698	1.625133	
1978.807296	1.625137	
1978.808839	1.625190	
1978.810395	1.625178	
1978.811997	1.625182	
1978.813491	1.625222	
1978.815147	1.625166	
1978.816635	1.625202	
1978.818280	1.625222	
1978.819773	1.625254	
1978.821506	1.625270	
1978.822980	1.625182	
1978.824694	1.625222	
1978.826175	1.625206	
1978.827898	1.625190	
1978.829395	1.625214	
1978.831114	1.625206	
1978.832598	1.625166	
1978.834307	1.625246	
1978.835794	1.625234	
1978.837574	1.625198	
1978.839059	1.625162	
1978.840816	1.625178	
1978.842309	1.625198	
1978.844063	1.625218	
1978.845583	1.625166	
1978.847340	1.625206	
1978.848857	1.625242	
1978.850578	1.625198	
1978.852118	1.625242	
1978.853835	1.625210	
1978.855385	1.625158	
1978.857081	1.625311	
1978.858644	1.625214	
1978.860340	1.625137	
1978.861905	1.625101	
1978.863577	1.625218	
1978.865152	1.625158	
1978.866815	1.625190	
1978.868402	1.625150	
1978.870039	1.625210	
1978.871661	1.625174	
1978.873270	1.625238	
1978.874936	1.625150	
1978.876537	1.625166	
1978.878186	1.625141	
1978.879803	1.625194	
1978.881485	1.625166	
1978.883077	1.625262	
1978.884763	1.625170	
1978.886317	1.625166	
1978.887999	1.625145	
1978.889558	1.625299	
1978.891253	1.625202	
1978.892825	1.625142	
1978.894546	1.625170	
1978.896101	1.625266	
1978.897821	1.625218	
1978.899327	1.625250	
1978.901093	1.625178	
1978.902577	1.625258	
1978.904352	1.625170	
1978.905844	1.625117	
1978.907635	1.625299	
1978.909111	1.625210	
1978.910885	1.625178	
1978.912365	1.625170	
1978.914148	1.625190	
1978.915643	1.625077	
1978.917213	1.625206	
1978.918762	1.625109	
1978.920298	1.625137	
1978.921916	1.625073	
1978.923415	1.625142	
1978.925059	1.625077	
1978.926577	1.625166	
1978.928230	1.625053	
1978.929709	1.625210	
1978.931418	1.625057	
1978.932896	1.625234	
1978.934617	1.625121	
1978.936101	1.625101	
1978.937841	1.625081	
1978.939329	1.625137	
1978.941036	1.625113	
1978.942522	1.625178	
1978.944219	1.625194	
1978.945697	1.625218	
1978.947457	1.625282	
1978.948947	1.625121	
1978.950690	1.625141	
1978.952208	1.625166	
1978.953946	1.625214	
1978.955470	1.625149	
1978.957185	1.625170	
1978.958722	1.625081	
1978.960412	1.625149	
1978.961975	1.625089	
1978.963665	1.625182	
1978.965231	1.625117	
1978.966899	1.625105	
1978.968481	1.625137	
1978.970143	1.625198	
1978.971730	1.625186	
1978.973384	1.625137	
1978.974978	1.625146	
1978.976616	1.625222	
1978.978248	1.625154	
1978.979865	1.625299	
1978.981520	1.625077	
1978.983103	1.625234	
1978.984764	1.625153	
1978.986353	1.625109	
1978.988033	1.625077	
1978.989611	1.624771	
1978.991316	1.619820	
1978.992863	1.579968	
1978.994573	1.513952	
1978.996121	1.462643	
1978.997838	1.431705	
1978.999363	1.381871	
1979.001091	1.347357	
1979.002585	1.318695	
1979.004360	1.297869	
1979.005843	1.264671	
1979.007620	1.228050	
1979.009101	1.221206	
1979.010880	1.173961	
1979.012361	1.138218	
1979.014114	1.094966	
1979.015619	1.068266	
1979.017390	1.028926	
1979.018904	0.998701	
1979.020666	0.985533	
1979.022188	0.965149	
1979.023928	0.936347	
1979.025454	0.927763	
1979.026999	0.894380	
1979.028616	0.866818	
1979.030098	0.829278	
1979.031747	0.823888	
1979.033251	0.792838	
1979.034896	0.762553	
1979.036376	0.754968	
1979.038027	0.751959	
1979.039505	0.729323	
1979.041149	0.721154	
1979.042632	0.709428	
1979.044331	0.685387	
1979.045824	0.654832	
1979.047543	0.634690	
1979.049043	0.627435	
1979.050740	0.600167	
1979.052236	0.592151	
1979.053896	0.590709	
1979.055423	0.594757	
1979.057159	0.571107	
1979.058712	0.571691	
1979.060412	0.565874	
1979.061962	0.542659	
1979.063638	0.519714	
1979.065218	0.521627	
1979.066911	0.499423	
1979.068497	0.495919	
1979.070170	0.488615	
1979.071758	0.492764	
1979.073430	0.479294	
1979.075040	0.484490	
1979.076669	0.479757	
1979.078294	0.464248	
1979.079921	0.437617	
1979.081557	0.442173	
1979.083178	0.424456	
1979.084814	0.416633	
1979.086408	0.418277	
1979.088096	0.429693	
1979.089668	0.408371	
1979.091378	0.414389	
1979.092946	0.411497	
1979.094650	0.398691	
1979.096220	0.378038	
1979.097916	0.373961	
1979.099483	0.361691	
1979.101202	0.341755	
1979.102747	0.347431	
1979.104457	0.348865	
1979.105960	0.343523	
1979.107728	0.338564	
1979.109216	0.326431	
1979.110982	0.315466	
1979.112471	0.296327	
1979.114252	0.283642	
1979.115734	0.270478	
1979.117517	0.248253	
1979.119001	0.246175	
1979.120757	0.244753	
1979.122262	0.242022	
1979.124006	0.234420	
1979.125528	0.235363	
1979.127281	0.213332	
1979.128811	0.188594	
1979.130536	0.174519	
1979.132072	0.174241	
1979.133793	0.149616	
1979.135335	0.139936	
1979.136824	0.146808	
1979.138479	0.142478	
1979.139971	0.121418	
1979.141613	0.126187	
1979.143147	0.116801	
1979.144804	0.094895	
1979.146278	0.070049	
1979.147926	0.076172	
1979.149399	0.055184	
1979.151030	0.044630	
1979.152513	0.036674	
1979.154218	0.047027	
1979.155709	0.035514	
1979.157401	0.012464	
1979.158911	0.016416	
1979.160571	0.009531	
1979.162094	-0.013160	
1979.163712	-0.034817	
1979.165253	-0.029221	
1979.166959	-0.051518	
1979.168531	-0.060517	
1979.170201	-0.053109	
1979.171776	-0.047006	
1979.173405	-0.065440	
1979.175018	-0.060558	
1979.176649	-0.063152	
1979.178266	-0.076039	
1979.179905	-0.105771	
1979.181530	-0.099250	
1979.183136	-0.115403	
1979.184800	-0.123025	
1979.186394	-0.114130	
1979.188077	-0.103782	
1979.189679	-0.116543	
1979.191349	-0.112809	
1979.192928	-0.109324	
1979.194621	-0.120696	
1979.196177	-0.142059	
1979.197883	-0.140338	
1979.199426	-0.147179	
1979.201159	-0.157314	
1979.202678	-0.157499	
1979.204403	-0.145652	
1979.205888	-0.148331	
1979.207657	-0.152307	
1979.209151	-0.151557	
1979.210950	-0.153733	
1979.212431	-0.169197	
1979.214226	-0.178104	
1979.215712	-0.182197	
1979.217477	-0.193444	
1979.218967	-0.195982	
1979.220721	-0.188586	
1979.222235	-0.181129	
1979.223991	-0.195986	
1979.225508	-0.191559	
1979.227229	-0.197794	
1979.228762	-0.217404	
1979.230486	-0.234545	
1979.232026	-0.227717	
1979.233721	-0.251585	
1979.235271	-0.252882	
1979.236961	-0.249570	
1979.238536	-0.247721	
1979.240207	-0.269188	
1979.241821	-0.264266	
1979.243315	-0.270961	
1979.244946	-0.291759	
1979.246482	-0.322503	
1979.248117	-0.317250	
1979.249600	-0.340885	
1979.251259	-0.355866	
1979.252734	-0.360865	
1979.254382	-0.359181	
1979.255864	-0.371774	
1979.257504	-0.382960	
1979.258980	-0.380177	
1979.260655	-0.401257	
1979.262161	-0.422772	
1979.263804	-0.444980	
1979.265350	-0.452151	
1979.266973	-0.475958	
1979.268550	-0.491399	
1979.270131	-0.495097	
1979.271736	-0.498505	
1979.273290	-0.526679	
1979.274916	-0.537402	
1979.276554	-0.550623	
1979.278217	-0.574213	
1979.279819	-0.612820	
1979.281491	-0.622186	
1979.283072	-0.648648	
1979.284751	-0.673543	
1979.286316	-0.684480	
1979.288032	-0.691421	
1979.289605	-0.713959	
1979.291280	-0.724260	
1979.292846	-0.736107	
1979.294555	-0.766396	
1979.296092	-0.802747	
1979.297802	-0.818704	
1979.299307	-0.845951	
1979.301075	-0.866165	
1979.302558	-0.884474	
1979.304332	-0.891121	
1979.305827	-0.913422	
1979.307632	-0.931420	
1979.309109	-0.948822	
1979.310908	-0.974531	
1979.312388	-1.002435	
1979.314157	-1.026750	
1979.315640	-1.053023	
1979.317381	-1.082204	
1979.318891	-1.097854	
1979.320636	-1.107244	
1979.322157	-1.115986	
1979.323900	-1.144502	
1979.325425	-1.151298	
1979.327130	-1.173087	
1979.328669	-1.208887	
1979.330357	-1.236166	
1979.331907	-1.253214	
1979.333598	-1.283826	
1979.335179	-1.298851	
1979.336845	-1.313264	
1979.338423	-1.326147	
1979.340080	-1.358051	
1979.341678	-1.370028	
1979.343305	-1.396453	
1979.344918	-1.424672	
1979.346533	-1.468484	
1979.348188	-1.479932	
1979.349783	-1.523978	
1979.351455	-1.548522	
1979.352933	-1.564918	
1979.354503	-1.577087	
1979.356007	-1.603042	
1979.357641	-1.623610	
1979.359140	-1.629552	
1979.360765	-1.630011	
1979.362280	-1.630019	
1979.363860	-1.630036	
1979.365391	-1.630052	
1979.366941	-1.630108	
1979.368532	-1.630180	
1979.370122	-1.630019	
1979.371717	-1.630104	
1979.373273	-1.630056	
1979.374894	-1.630088	
1979.376394	-1.630104	
1979.378105	-1.630100	
1979.379578	-1.630040	
1979.381346	-1.630104	
1979.382825	-1.630080	
1979.384553	-1.630064	
1979.386099	-1.629991	
1979.387812	-1.630072	
1979.389335	-1.630036	
1979.391077	-1.630152	
1979.392580	-1.630027	
1979.394350	-1.630144	
1979.395829	-1.630036	
1979.397597	-1.630048	
1979.399076	-1.630080	
1979.400838	-1.630068	
1979.402323	-1.630108	
1979.404096	-1.630031	
1979.405598	-1.630176	
1979.407363	-1.630044	
1979.408863	-1.630088	
1979.410609	-1.629991	
1979.412121	-1.630140	
1979.413848	-1.630124	
1979.415381	-1.630144	
1979.417080	-1.629983	
1979.418627	-1.630056	
1979.420329	-1.630060	
1979.421895	-1.630168	
1979.423569	-1.630064	
1979.425145	-1.630152	
1979.426806	-1.630060	
1979.428386	-1.630188	
1979.430039	-1.630035	
1979.431652	-1.630205	
1979.433279	-1.630040	
1979.434906	-1.630172	
1979.436525	-1.630100	
1979.438166	-1.630156	
1979.439767	-1.630019	
1979.441419	-1.630144	
1979.443007	-1.630124	
1979.444698	-1.630201	
1979.446266	-1.630031	
1979.447973	-1.630124	
1979.449525	-1.630080	
1979.451217	-1.630132	
1979.452769	-1.630168	
1979.454475	-1.630164	
1979.456025	-1.630052	
1979.457755	-1.630132	
1979.459237	-1.630104	
1979.461004	-1.630164	
1979.462481	-1.630184	
1979.464033	-1.630132	
1979.465555	-1.630253	
1979.467134	-1.630120	
1979.468681	-1.630116	
1979.470209	-1.630072	
1979.471850	-1.630060	
1979.473346	-1.630180	
1979.474974	-1.630116	
1979.476503	-1.630120	
1979.478151	-1.630168	
1979.479627	-1.630060	
1979.481365	-1.630184	
1979.482839	-1.630185	
1979.484548	-1.630221	
1979.486022	-1.630160	
1979.487743	-1.630265	
1979.489235	-1.630193	
1979.490946	-1.630160	
1979.492432	-1.630148	
1979.494152	-1.630072	
1979.495629	-1.630197	
1979.497397	-1.630152	
1979.498899	-1.630144	
1979.500633	-1.630168	
1979.502151	-1.630172	
1979.503860	-1.630185	
1979.505387	-1.630140	
1979.507120	-1.630064	
1979.508667	-1.630168	
1979.510372	-1.630080	
1979.511920	-1.630193	
1979.513599	-1.630108	
1979.515163	-1.630233	
1979.516817	-1.630080	
1979.518406	-1.630209	
1979.520063	-1.630072	
1979.521675	-1.630229	
1979.523318	-1.630148	
1979.524937	-1.630241	
1979.526568	-1.630080	
1979.528190	-1.630217	
1979.529796	-1.630044	
1979.531488	-1.630213	
1979.533072	-1.630132	
1979.534741	-1.630185	
1979.536328	-1.630084	
1979.538002	-1.630176	
1979.539592	-1.630156	
1979.541284	-1.630185	
1979.542854	-1.630096	
1979.544552	-1.630257	
1979.546095	-1.630080	
1979.547803	-1.630164	
1979.549321	-1.630237	
1979.551047	-1.630201	
1979.552525	-1.630132	
1979.554294	-1.630176	
1979.555782	-1.630144	
1979.557578	-1.630188	
1979.559067	-1.630176	
1979.560846	-1.630176	
1979.562331	-1.630144	
1979.564093	-1.630140	
1979.565595	-1.630140	
1979.567349	-1.630164	
1979.568867	-1.630180	
1979.570620	-1.630180	
1979.572142	-1.630217	
1979.573869	-1.630068	
1979.575386	-1.630120	
1979.576920	-1.630221	
1979.578547	-1.630225	
1979.580045	-1.630132	
1979.581697	-1.630164	
1979.583208	-1.630136	
1979.584869	-1.630213	
1979.586348	-1.630245	
1979.588049	-1.630164	
1979.589527	-1.630052	
1979.591241	-1.630185	
1979.592713	-1.630164	
1979.594419	-1.630108	
1979.595909	-1.630124	
1979.597623	-1.630088	
1979.599126	-1.630124	
1979.600828	-1.630096	
1979.602308	-1.630180	
1979.604006	-1.630052	
1979.605522	-1.630217	
1979.607234	-1.630072	
1979.608763	-1.630209	
1979.610485	-1.629995	
1979.612019	-1.630088	
1979.613731	-1.630052	
1979.615293	-1.630144	
1979.616997	-1.630023	
1979.618551	-1.630092	
1979.620245	-1.629987	
1979.621820	-1.630180	
1979.623491	-1.630015	
1979.625055	-1.630132	
1979.626689	-1.630031	
1979.628296	-1.630080	
1979.629915	-1.629971	
1979.631541	-1.630092	
1979.633158	-1.630080	
1979.634793	-1.630068	
1979.636405	-1.629975	
1979.638077	-1.630084	
1979.639654	-1.630096	
1979.641340	-1.630124	
1979.642914	-1.629987	
1979.644619	-1.630031	
1979.646188	-1.630035	
1979.647876	-1.630052	
1979.649425	-1.629943	
1979.651125	-1.630060	
1979.652657	-1.626744	
1979.654387	-1.514197	
1979.655880	-1.423669	
1979.657648	-1.336999	
1979.659126	-1.251772	
1979.660894	-1.170767	
1979.662370	-1.110088	
1979.664137	-1.017509	
1979.665630	-0.941998	
1979.667389	-0.871245	
1979.668884	-0.787134	
1979.670643	-0.685402	
1979.672160	-0.604171	
1979.673902	-0.521361	
1979.675420	-0.429250	
1979.677148	-0.352462	
1979.678692	-0.284323	
1979.680417	-0.204477	
1979.681959	-0.113204	
1979.683678	-0.035465	
1979.685258	0.058189	
1979.686750	0.156073	
1979.688449	0.265088	
1979.689932	0.341888	
1979.691568	0.429367	
1979.693094	0.504793	
1979.694726	0.581819	
1979.696204	0.642699	
1979.697865	0.736413	
1979.699342	0.812279	
1979.701040	0.889345	
1979.702527	0.969859	
1979.704230	1.063815	
1979.705713	1.149014	
1979.707415	1.229738	
1979.708922	1.326502	
1979.710584	1.398685	
1979.712107	1.469455	
1979.713769	1.527273	
1979.715301	1.601455	
1979.716987	1.623087	
1979.718546	1.625069	
1979.720248	1.625254	
1979.721818	1.625154	
1979.723505	1.625194	
1979.725095	1.625061	
1979.726771	1.625174	
1979.728349	1.625057	
1979.729990	1.625170	
1979.731594	1.625133	
1979.733240	1.625190	
1979.734869	1.625121	
1979.736496	1.625178	
1979.738165	1.625113	
1979.739748	1.625202	
1979.741429	1.625097	
1979.743029	1.625262	
1979.744701	1.625041	
1979.746295	1.625190	
1979.747993	1.625137	
1979.749553	1.625202	
1979.751269	1.625146	
1979.752815	1.625129	
1979.754515	1.625186	
1979.756076	1.625162	
1979.757759	1.625141	
1979.759280	1.625153	
1979.761026	1.625198	
1979.762508	1.625170	
1979.764283	1.625182	
1979.765767	1.625146	
1979.767561	1.625178	
1979.769042	1.625166	
1979.770794	1.625166	
1979.772273	1.625170	
1979.774033	1.625117	
1979.775538	1.625153	
1979.777293	1.625218	
1979.778807	1.625133	
1979.780541	1.625129	
1979.782060	1.625206	
1979.783793	1.625206	
1979.785336	1.625069	
1979.787072	1.625307	
1979.788624	1.625149	
1979.790312	1.625222	
1979.791892	1.625157	
1979.793389	1.625182	
1979.795057	1.625089	
1979.796564	1.625137	
1979.798200	1.625190	
1979.799733	1.625190	
1979.801377	1.625182	
1979.802858	1.625158	
1979.804525	1.625129	
1979.806003	1.625154	
1979.807640	1.625190	
1979.809124	1.625141	
1979.810832	1.625226	
1979.812313	1.625194	
1979.813995	1.625206	
1979.815502	1.625113	
1979.817148	1.625194	
1979.818681	1.625141	
1979.820301	1.625274	
1979.821874	1.625153	
1979.823568	1.625190	
1979.825124	1.625105	
1979.826798	1.625254	
1979.828370	1.625162	
1979.830005	1.625242	
1979.831595	1.625137	
1979.833226	1.625186	
1979.834849	1.625113	
1979.836459	1.625250	
1979.838140	1.625166	
1979.839740	1.625351	
1979.841398	1.625145	
1979.843002	1.625186	
1979.844686	1.625210	
1979.846246	1.625250	
1979.847941	1.625109	
1979.849490	1.625250	
1979.851203	1.625125	
1979.852769	1.625222	
1979.854474	1.625202	
1979.856031	1.625270	
1979.857760	1.625105	
1979.859295	1.625165	
1979.861018	1.625125	
1979.862505	1.625133	
1979.864292	1.625226	
1979.865772	1.625214	
1979.867553	1.625254	
1979.869049	1.625178	
1979.870828	1.625178	
1979.872304	1.625190	
1979.874083	1.625154	
1979.875567	1.625142	
1979.877308	1.625262	
1979.878816	1.625117	
1979.880542	1.625133	
1979.882065	1.625158	
1979.883805	1.625262	
1979.885346	1.625133	
1979.887070	1.625242	
1979.888612	1.625218	
1979.890311	1.625222	
1979.891853	1.625065	
1979.893530	1.625238	
1979.895107	1.625153	
1979.896794	1.625327	
1979.898407	1.625250	
1979.899898	1.625150	
1979.901530	1.625129	
1979.903058	1.625109	
1979.904685	1.625137	
1979.906163	1.625150	
1979.907815	1.625218	
1979.909309	1.625089	
1979.910946	1.625141	
1979.912458	1.625158	
1979.914101	1.625190	
1979.915594	1.625162	
1979.917270	1.625194	
1979.918774	1.625109	
1979.920426	1.625206	
1979.921956	1.625125	
1979.923596	1.625170	
1979.925175	1.625113	
1979.926755	1.625101	
1979.928364	1.625194	
1979.929917	1.625186	
1979.931533	1.625133	
1979.933149	1.625226	
1979.934804	1.625133	
1979.936421	1.625214	
1979.938090	1.625093	
1979.939698	1.625162	
1979.941371	1.625141	
1979.942946	1.625210	
1979.944634	1.625008	
1979.946195	1.625178	
1979.947908	1.625121	
1979.949463	1.625218	
1979.951173	1.625178	
1979.952740	1.625238	
1979.954455	1.625121	
1979.956000	1.625210	
1979.957730	1.625166	
1979.959229	1.625238	
1979.960977	1.625125	
1979.962464	1.625198	
1979.964231	1.625125	
1979.965721	1.625153	
1979.967507	1.625190	
1979.968987	1.625230	
1979.970770	1.625178	
1979.972248	1.625101	
1979.974002	1.625158	
1979.975501	1.625093	
1979.977236	1.625117	
1979.978750	1.625069	
1979.980487	1.625170	
1979.982025	1.625109	
1979.983755	1.625242	
1979.985300	1.625133	
1979.987001	1.625250	
1979.988554	1.625029	
1979.990246	1.625254	
1979.991813	1.624996	
1979.993501	1.625262	
1979.995083	1.625041	
1979.996771	1.625166	
1979.998346	1.625133	
1980.000007	1.625154	
1980.001593	1.625077	
1980.003235	1.625202	
1980.004858	1.625073	
1980.006475	1.625214	
1980.008140	1.625089	
1980.009636	1.625077	
1980.011292	1.625025	
1980.012767	1.625077	
1980.014411	1.625037	
1980.015902	1.625037	
1980.017545	1.625000	
1980.019036	1.621649	
1980.020633	1.594720	
1980.022171	1.552483	
1980.023742	1.507220	
1980.025286	1.499148	
1980.026912	1.457793	
1980.028487	1.423004	
1980.030085	1.380808	
1980.031686	1.358869	
1980.033238	1.322925	
1980.034862	1.294521	
1980.036375	1.278198	
1980.038058	1.268325	
1980.039636	1.237234	
1980.041325	1.230608	
1980.042905	1.215796	
1980.044592	1.180318	
1980.046170	1.160426	
1980.047852	1.138718	
1980.049406	1.105114	
1980.051105	1.089588	
1980.052643	1.071074	
1980.054369	1.070502	
1980.055855	1.058598	
1980.057611	1.036116	
1980.059090	1.038759	
1980.060865	1.012595	
1980.062351	0.981287	
1980.064140	0.968002	
1980.065630	0.941447	
1980.067427	0.921458	
1980.068913	0.906590	
1980.070654	0.904072	
1980.072155	0.895609	
1980.073900	0.881082	
1980.075418	0.882412	
1980.077166	0.855889	
1980.078709	0.831752	
1980.080448	0.804955	
1980.081981	0.803763	
1980.083687	0.776797	
1980.085226	0.762589	
1980.086914	0.758263	
1980.088478	0.752144	
1980.090137	0.727092	
1980.091724	0.724272	
1980.093355	0.716888	
1980.094952	0.680887	
1980.096602	0.649869	
1980.098194	0.653829	
1980.099817	0.614500	
1980.101464	0.591704	
1980.103047	0.593597	
1980.104737	0.588949	
1980.106331	0.560593	
1980.108007	0.557830	
1980.109591	0.534611	
1980.111270	0.511049	
1980.112850	0.488845	
1980.114550	0.466431	
1980.116095	0.431179	
1980.117805	0.417016	
1980.119292	0.406570	
1980.120931	0.405664	
1980.122404	0.395005	
1980.124046	0.371750	
1980.125538	0.369800	
1980.127126	0.341529	
1980.128673	0.320787	
1980.130224	0.293914	
1980.131822	0.292162	
1980.133396	0.251254	
1980.134999	0.237611	
1980.136560	0.225522	
1980.138192	0.223306	
1980.139722	0.195704	
1980.141384	0.188675	
1980.142861	0.181528	
1980.144575	0.152392	
1980.146062	0.114747	
1980.147770	0.112890	
1980.149312	0.095640	
1980.151050	0.069460	
1980.152573	0.053613	
1980.154331	0.058334	
1980.155827	0.044876	
1980.157581	0.035252	
1980.159068	0.027119	
1980.160830	0.013314	
1980.162316	-0.027948	
1980.164117	-0.035570	
1980.165593	-0.052529	
1980.167361	-0.070222	
1980.168863	-0.078737	
1980.170607	-0.074866	
1980.172122	-0.080623	
1980.173858	-0.092079	
1980.175387	-0.094593	
1980.177110	-0.106718	
1980.178637	-0.125434	
1980.180328	-0.140238	
1980.181878	-0.145044	
1980.183571	-0.166857	
1980.185138	-0.173290	
1980.186813	-0.171071	
1980.188396	-0.169210	
1980.190029	-0.186507	
1980.191629	-0.182966	
1980.193264	-0.191466	
1980.194868	-0.215519	
1980.196508	-0.230488	
1980.198120	-0.230895	
1980.199735	-0.251782	
1980.201416	-0.262614	
1980.202999	-0.264806	
1980.204677	-0.258928	
1980.206259	-0.265825	
1980.207922	-0.262812	
1980.209506	-0.276447	
1980.211193	-0.293773	
1980.212764	-0.315474	
1980.214464	-0.319478	
1980.216008	-0.336183	
1980.217706	-0.354653	
1980.219231	-0.359217	
1980.220965	-0.352301	
1980.222454	-0.365941	
1980.224227	-0.374372	
1980.225721	-0.376994	
1980.227242	-0.399005	
1980.228781	-0.416879	
1980.230339	-0.430442	
1980.231896	-0.439163	
1980.233402	-0.469710	
1980.235062	-0.484542	
1980.236551	-0.485562	
1980.238188	-0.487769	
1980.239710	-0.517526	
1980.241340	-0.524934	
1980.242824	-0.535299	
1980.244552	-0.560033	
1980.246030	-0.589363	
1980.247751	-0.604498	
1980.249243	-0.628345	
1980.250956	-0.657643	
1980.252444	-0.672367	
1980.254151	-0.680851	
1980.255634	-0.702978	
1980.257412	-0.720908	
1980.258897	-0.738093	
1980.260670	-0.763753	
1980.262161	-0.797781	
1980.263910	-0.824819	
1980.265422	-0.842922	
1980.267161	-0.879946	
1980.268684	-0.902585	
1980.270405	-0.914441	
1980.271945	-0.927355	
1980.273649	-0.963941	
1980.275199	-0.978523	
1980.276891	-1.001420	
1980.278450	-1.041236	
1980.280127	-1.072387	
1980.281701	-1.090929	
1980.283354	-1.127881	
1980.284952	-1.155781	
1980.286577	-1.171762	
1980.288192	-1.186429	
1980.289823	-1.215340	
1980.291442	-1.234744	
1980.293054	-1.251232	
1980.294695	-1.287101	
1980.296295	-1.322695	
1980.297984	-1.350176	
1980.299556	-1.380058	
1980.301243	-1.411318	
1980.302792	-1.428829	
1980.304502	-1.435633	
1980.306055	-1.467211	
1980.307745	-1.488122	
1980.309296	-1.508219	
1980.311008	-1.537638	
1980.312503	-1.579867	
1980.314262	-1.598872	
1980.315742	-1.618305	
1980.317517	-1.629274	
1980.319006	-1.629907	
1980.320777	-1.629963	
1980.322259	-1.630039	
1980.324044	-1.629943	
1980.325530	-1.630007	
1980.327308	-1.629995	
1980.328804	-1.630044	
1980.330547	-1.630011	
1980.332087	-1.630023	
1980.333583	-1.630108	
1980.335190	-1.630092	
1980.336677	-1.630112	
1980.338326	-1.630060	
1980.339821	-1.630011	
1980.341456	-1.630116	
1980.342980	-1.630189	
1980.344618	-1.630112	
1980.346093	-1.630148	
1980.347733	-1.630132	
1980.349217	-1.630112	
1980.350930	-1.630076	
1980.352414	-1.630031	
1980.354110	-1.630172	
1980.355605	-1.630120	
1980.357286	-1.630068	
1980.358791	-1.630072	
1980.360453	-1.630088	
1980.361968	-1.630144	
1980.363616	-1.630048	
1980.365167	-1.630136	
1980.366843	-1.629987	
1980.368404	-1.630144	
1980.370068	-1.630040	
1980.371655	-1.630112	
1980.373280	-1.629999	
1980.374884	-1.630209	
1980.376525	-1.630076	
1980.378132	-1.630185	
1980.379765	-1.630072	
1980.381424	-1.630112	
1980.383041	-1.629931	
1980.384718	-1.630201	
1980.386306	-1.630015	
1980.387977	-1.630019	
1980.389556	-1.630092	
1980.391230	-1.630116	
1980.392805	-1.630036	
1980.394513	-1.630120	
1980.396075	-1.630104	
1980.397779	-1.630096	
1980.399333	-1.630112	
1980.401042	-1.630144	
1980.402587	-1.630096	
1980.404302	-1.630140	
1980.405793	-1.630112	
1980.407560	-1.630152	
1980.409052	-1.630027	
1980.410843	-1.630023	
1980.412324	-1.630092	
1980.414110	-1.630076	
1980.415601	-1.630096	
1980.417375	-1.630076	
1980.418864	-1.630140	
1980.420644	-1.630080	
1980.422148	-1.630124	
1980.423913	-1.630096	
1980.425425	-1.630156	
1980.427126	-1.630100	
1980.428641	-1.630189	
1980.430357	-1.630096	
1980.431905	-1.630124	
1980.433604	-1.630051	
1980.435159	-1.630193	
1980.436830	-1.630092	
1980.438403	-1.630188	
1980.440072	-1.630080	
1980.441671	-1.630160	
1980.443159	-1.630152	
1980.444782	-1.630209	
1980.446308	-1.630140	
1980.447933	-1.630108	
1980.449425	-1.630148	
1980.451062	-1.630152	
1980.452549	-1.630201	
1980.454179	-1.630225	
1980.455659	-1.630225	
1980.457274	-1.630136	
1980.458770	-1.630172	
1980.460430	-1.630185	
1980.461964	-1.630120	
1980.463599	-1.630120	
1980.465181	-1.630237	
1980.466775	-1.630056	
1980.468355	-1.630201	
1980.469918	-1.630124	
1980.471530	-1.630189	
1980.473149	-1.630112	
1980.474784	-1.630229	
1980.476419	-1.630052	
1980.478079	-1.630209	
1980.479675	-1.630039	
1980.481334	-1.630209	
1980.482924	-1.630108	
1980.484604	-1.630197	
1980.486170	-1.630068	
1980.487874	-1.630120	
1980.489446	-1.630148	
1980.491125	-1.630213	
1980.492678	-1.630039	
1980.494396	-1.630144	
1980.495942	-1.630104	
1980.497676	-1.630168	
1980.499176	-1.630152	
1980.500921	-1.630136	
1980.502407	-1.630084	
1980.504186	-1.630108	
1980.505682	-1.630205	
1980.507480	-1.630136	
1980.508963	-1.630136	
1980.510753	-1.630060	
1980.512237	-1.630124	
1980.513997	-1.630152	
1980.515493	-1.630152	
1980.517252	-1.630160	
1980.518763	-1.630092	
1980.520518	-1.630100	
1980.522028	-1.630124	
1980.523760	-1.630044	
1980.525294	-1.630172	
1980.527003	-1.630031	
1980.528547	-1.630168	
1980.530251	-1.630132	
1980.531803	-1.630197	
1980.533484	-1.630044	
1980.535054	-1.630176	
1980.536714	-1.630027	
1980.538290	-1.630225	
1980.539955	-1.630060	
1980.541548	-1.630269	
1980.543212	-1.630088	
1980.544833	-1.630197	
1980.546455	-1.629979	
1980.548092	-1.630213	
1980.549689	-1.630011	
1980.551372	-1.630136	
1980.552852	-1.630116	
1980.554490	-1.630144	
1980.555974	-1.630156	
1980.557620	-1.630152	
1980.559116	-1.630193	
1980.560742	-1.630120	
1980.562253	-1.630189	
1980.563867	-1.630140	
1980.565381	-1.630164	
1980.566943	-1.630132	
1980.568499	-1.630164	
1980.570105	-1.630124	
1980.571682	-1.630112	
1980.573249	-1.630108	
1980.574861	-1.630176	
1980.576414	-1.630136	
1980.578097	-1.630096	
1980.579580	-1.630128	
1980.581298	-1.630136	
1980.582888	-1.630084	
1980.584567	-1.630168	
1980.586158	-1.629995	
1980.587827	-1.630152	
1980.589380	-1.630056	
1980.591091	-1.630092	
1980.592643	-1.630052	
1980.594350	-1.630072	
1980.595866	-1.630056	
1980.597626	-1.630100	
1980.599120	-1.630080	
1980.600893	-1.630108	
1980.602384	-1.630019	
1980.604179	-1.630068	
1980.605660	-1.630104	
1980.607459	-1.630068	
1980.608941	-1.630060	
1980.610711	-1.630108	
1980.612188	-1.630132	
1980.613940	-1.630084	
1980.615441	-1.630027	
1980.617213	-1.630092	
1980.618729	-1.630100	
1980.620482	-1.630044	
1980.621996	-1.630076	
1980.623708	-1.630044	
1980.625240	-1.630124	
1980.626943	-1.630011	
1980.628491	-1.630084	
1980.630202	-1.629927	
1980.631774	-1.630060	
1980.633459	-1.629943	
1980.635035	-1.629995	
1980.636703	-1.629898	
1980.638287	-1.627631	
1980.639941	-1.563609	
1980.641551	-1.484259	
1980.643163	-1.417558	
1980.644798	-1.360396	
1980.646430	-1.316386	
1980.648069	-1.247196	
1980.649675	-1.195771	
1980.651319	-1.136603	
1980.652922	-1.064411	
1980.654592	-0.985307	
1980.656161	-0.935654	
1980.657860	-0.866347	
1980.659407	-0.801660	
1980.661115	-0.749336	
1980.662597	-0.704295	
1980.664151	-0.642489	
1980.665657	-0.583659	
1980.667281	-0.522993	
1980.668808	-0.458797	
1980.670391	-0.385675	
1980.671938	-0.314632	
1980.673472	-0.266916	
1980.675086	-0.186813	
1980.676574	-0.122610	
1980.678217	-0.075764	
1980.679776	-0.026200	
1980.681419	0.051027	
1980.682921	0.112970	
1980.684637	0.172569	
1980.686130	0.245736	
1980.687864	0.333690	
1980.689341	0.383984	
1980.691064	0.452860	
1980.692547	0.518562	
1980.694253	0.588397	
1980.695736	0.633305	
1980.697512	0.716050	
1980.699003	0.783174	
1980.700782	0.850661	
1980.702273	0.922417	
1980.704066	1.017175	
1980.705552	1.076343	
1980.707329	1.153989	
1980.708812	1.209463	
1980.710565	1.272031	
1980.712070	1.310852	
1980.713797	1.376356	
1980.715329	1.431645	
1980.717058	1.486321	
1980.718583	1.541860	
1980.720287	1.605012	
1980.721828	1.623856	
1980.723544	1.625294	
1980.725110	1.625166	
1980.726780	1.625174	
1980.728352	1.625097	
1980.729997	1.625222	
1980.731607	1.625105	
1980.733260	1.625206	
1980.734852	1.625045	
1980.736494	1.625182	
1980.738100	1.625089	
1980.739714	1.625206	
1980.741380	1.625113	
1980.742967	1.625153	
1980.744643	1.625125	
1980.746246	1.625162	
1980.747920	1.625061	
1980.749505	1.625069	
1980.751169	1.625101	
1980.752737	1.625142	
1980.754463	1.625182	
1980.756013	1.625153	
1980.757705	1.625150	
1980.759249	1.625170	
1980.760961	1.625145	
1980.762468	1.625105	
1980.764222	1.625101	
1980.765707	1.625049	
1980.767476	1.625153	
1980.768956	1.625158	
1980.770738	1.625182	
1980.772226	1.625113	
1980.773834	1.625242	
1980.775365	1.625149	
1980.776930	1.625146	
1980.778503	1.625069	
1980.779987	1.625234	
1980.781663	1.625045	
1980.783153	1.625145	
1980.784790	1.625198	
1980.786315	1.625133	
1980.787962	1.625178	
1980.789436	1.625214	
1980.791153	1.625178	
1980.792624	1.625166	
1980.794342	1.625238	
1980.795837	1.625158	
1980.797543	1.625194	
1980.799043	1.625190	
1980.800751	1.625206	
1980.802231	1.625162	
1980.804013	1.625101	
1980.805496	1.625174	
1980.807277	1.625226	
1980.808777	1.625178	
1980.810498	1.625186	
1980.812022	1.625170	
1980.813760	1.625222	
1980.815284	1.625190	
1980.816996	1.625194	
1980.818538	1.625194	
1980.820238	1.625194	
1980.821795	1.625194	
1980.823502	1.625198	
1980.825057	1.625085	
1980.826720	1.625210	
1980.828306	1.625133	
1980.829963	1.625230	
1980.831549	1.625133	
1980.833191	1.625101	
1980.834804	1.625053	
1980.836449	1.625214	
1980.838084	1.625085	
1980.839698	1.625210	
1980.841380	1.625109	
1980.842988	1.625274	
1980.844630	1.625202	
1980.846233	1.625089	
1980.847899	1.625194	
1980.849478	1.625242	
1980.851180	1.625145	
1980.852730	1.625162	
1980.854435	1.625045	
1980.855992	1.625214	
1980.857694	1.625121	
1980.859243	1.625198	
1980.860957	1.625162	
1980.862470	1.625202	
1980.864228	1.625182	
1980.865711	1.625081	
1980.867507	1.625154	
1980.868990	1.625109	
1980.870763	1.625129	
1980.872252	1.625218	
1980.874034	1.625190	
1980.875520	1.625109	
1980.877312	1.625222	
1980.878811	1.625170	
1980.880311	1.625089	
1980.881889	1.625186	
1980.883425	1.625174	
1980.885039	1.625149	
1980.886536	1.625178	
1980.888168	1.625113	
1980.889694	1.625065	
1980.891348	1.625097	
1980.892832	1.625150	
1980.894478	1.625222	
1980.895948	1.625157	
1980.897678	1.625178	
1980.899165	1.625202	
1980.900870	1.625117	
1980.902350	1.625198	
1980.904049	1.625113	
1980.905540	1.625133	
1980.907242	1.625190	
1980.908760	1.625113	
1980.910446	1.625150	
1980.911968	1.625105	
1980.913687	1.625174	
1980.915214	1.625198	
1980.916934	1.625222	
1980.918486	1.625113	
1980.920186	1.625149	
1980.921741	1.625057	
1980.923436	1.625262	
1980.925019	1.625065	
1980.926694	1.625230	
1980.928275	1.625129	
1980.929927	1.625319	
1980.931530	1.625146	
1980.933182	1.625262	
1980.934804	1.625101	
1980.936430	1.625178	
1980.938060	1.625029	
1980.939672	1.625226	
1980.941314	1.625113	
1980.942915	1.625270	
1980.944566	1.625190	
1980.946134	1.625214	
1980.947828	1.625029	
1980.949385	1.625170	
1980.951100	1.625137	
1980.952651	1.625206	
1980.954346	1.625105	
1980.955886	1.625222	
1980.957603	1.625166	
1980.959131	1.625149	
1980.960891	1.625194	
1980.962373	1.625262	
1980.964150	1.625109	
1980.965640	1.625129	
1980.967409	1.625121	
1980.968888	1.625077	
1980.970639	1.625150	
1980.972125	1.625178	
1980.973870	1.625049	
1980.975377	1.625162	
1980.977135	1.625145	
1980.978651	1.625073	
1980.980382	1.625238	
1980.981912	1.625198	
1980.983620	1.625125	
1980.985156	1.625166	
1980.986839	1.625226	
1980.988420	1.625182	
1980.989913	1.625149	
1980.991557	1.625210	
1980.993063	1.625113	
1980.994702	1.625137	
1980.996187	1.625113	
1980.997827	1.625137	
1980.999316	1.625133	
1981.000965	1.625125	
1981.002470	1.625069	
1981.004093	1.625206	
1981.005601	1.625198	
1981.007316	1.625194	
1981.008794	1.625057	
1981.010465	1.625061	
1981.011972	1.625097	
1981.013625	1.625214	
1981.015174	1.625105	
1981.016787	1.625194	
1981.018346	1.625097	
1981.020014	1.625109	
1981.021610	1.625085	
1981.023264	1.625206	
1981.024866	1.625073	
1981.026521	1.625270	
1981.028127	1.625117	
1981.029775	1.625174	
1981.031392	1.625077	
1981.033000	1.625137	
1981.034669	1.625045	
1981.036259	1.625202	
1981.037926	1.625105	
1981.039519	1.625109	
1981.041188	1.625113	
1981.042758	1.625121	
1981.044463	1.624219	
1981.046001	1.605612	
1981.047718	1.558682	
1981.049259	1.528425	
1981.050972	1.497375	
1981.052504	1.480746	
1981.054226	1.469113	
1981.055715	1.440101	
1981.057494	1.429752	
1981.058984	1.406879	
1981.060769	1.389819	
1981.062255	1.342245	
1981.064029	1.321857	
1981.065509	1.297969	
1981.067280	1.283540	
1981.068772	1.257134	
1981.070540	1.252530	
1981.072054	1.246431	
1981.073801	1.223647	
1981.075316	1.204247	
1981.077028	1.191883	
1981.078556	1.157679	
1981.080260	1.121879	
1981.081809	1.112904	
1981.083506	1.078712	
1981.085067	1.067626	
1981.086764	1.055488	
1981.088329	1.061185	
1981.090005	1.015705	
1981.091581	1.014666	
1981.093226	0.996107	
1981.094820	0.974580	
1981.096335	0.928105	
1981.097980	0.919666	
1981.099464	0.890589	
1981.101111	0.870806	
1981.102583	0.857432	
1981.104229	0.854608	
1981.105703	0.827147	
1981.107355	0.819006	
1981.108836	0.804621	
1981.110427	0.772499	
1981.111956	0.749808	
1981.113588	0.721017	
1981.115133	0.704525	
1981.116735	0.673298	
1981.118330	0.651416	
1981.119897	0.645913	
1981.121493	0.648608	
1981.123047	0.603974	
1981.124707	0.609292	
1981.126304	0.595225	
1981.127955	0.553471	
1981.129553	0.524157	
1981.131230	0.515053	
1981.132813	0.480913	
1981.134489	0.453794	
1981.136054	0.446205	
1981.137755	0.434378	
1981.139304	0.417346	
1981.141010	0.417008	
1981.142569	0.405612	
1981.144282	0.375915	
1981.145790	0.343668	
1981.147555	0.327913	
1981.149043	0.309879	
1981.150830	0.286708	
1981.152312	0.271557	
1981.154067	0.272448	
1981.155564	0.254634	
1981.157353	0.245933	
1981.158842	0.237550	
1981.160622	0.211870	
1981.162106	0.185661	
1981.163866	0.171868	
1981.165372	0.158212	
1981.167119	0.134196	
1981.168636	0.118401	
1981.170372	0.125712	
1981.171900	0.116894	
1981.173607	0.099177	
1981.175149	0.095717	
1981.176860	0.078730	
1981.178411	0.046990	
1981.180091	0.020919	
1981.181653	0.037145	
1981.183313	0.001644	
1981.184898	-0.016444	
1981.186550	-0.015058	
1981.188144	-0.009193	
1981.189772	-0.030430	
1981.191374	-0.028976	
1981.192999	-0.037769	
1981.194677	-0.064010	
1981.196270	-0.085110	
1981.197944	-0.085984	
1981.199522	-0.106090	
1981.201198	-0.122175	
1981.202784	-0.124479	
1981.204453	-0.120253	
1981.205953	-0.138167	
1981.207512	-0.141877	
1981.209015	-0.143908	
1981.210662	-0.162708	
1981.212156	-0.183796	
1981.213743	-0.199249	
1981.215268	-0.202955	
1981.216812	-0.226464	
1981.218413	-0.237345	
1981.219916	-0.229389	
1981.221564	-0.231350	
1981.223125	-0.258449	
1981.224748	-0.258711	
1981.226268	-0.266880	
1981.227952	-0.292347	
1981.229431	-0.322676	
1981.231153	-0.328385	
1981.232627	-0.354073	
1981.234346	-0.376914	
1981.235904	-0.380765	
1981.237622	-0.368623	
1981.239174	-0.393333	
1981.240897	-0.408395	
1981.242405	-0.420895	
1981.244176	-0.441000	
1981.245661	-0.471869	
1981.247439	-0.484550	
1981.248927	-0.506501	
1981.250684	-0.533623	
1981.252161	-0.549249	
1981.253949	-0.552847	
1981.255450	-0.573500	
1981.257226	-0.589536	
1981.258720	-0.600703	
1981.260470	-0.628587	
1981.261978	-0.657506	
1981.263711	-0.683771	
1981.265235	-0.701048	
1981.266952	-0.733460	
1981.268499	-0.753038	
1981.270215	-0.756700	
1981.271775	-0.773288	
1981.273478	-0.803787	
1981.275027	-0.810433	
1981.276709	-0.833375	
1981.278276	-0.865940	
1981.279931	-0.904394	
1981.281537	-0.914183	
1981.283183	-0.952448	
1981.284785	-0.975421	
1981.286416	-0.988360	
1981.288022	-0.988175	
1981.289638	-1.020381	
1981.291297	-1.036628	
1981.292871	-1.053494	
1981.294561	-1.085749	
1981.296149	-1.122878	
1981.297842	-1.139144	
1981.299435	-1.162589	
1981.301121	-1.193164	
1981.302693	-1.207275	
1981.304421	-1.212415	
1981.305961	-1.241649	
1981.307661	-1.250423	
1981.309207	-1.269122	
1981.310908	-1.295902	
1981.312396	-1.335416	
1981.313955	-1.347541	
1981.315463	-1.376219	
1981.317049	-1.403676	
1981.318611	-1.418790	
1981.320162	-1.424249	
1981.321760	-1.432628	
1981.323251	-1.461217	
1981.324917	-1.470965	
1981.326406	-1.494092	
1981.328038	-1.525513	
1981.329538	-1.557779	
1981.331223	-1.572527	
1981.332703	-1.599368	
1981.334426	-1.623546	
1981.335905	-1.629923	
1981.337638	-1.630039	
1981.339124	-1.629991	
1981.340833	-1.630011	
1981.342315	-1.629991	
1981.344093	-1.629979	
1981.345574	-1.629999	
1981.347321	-1.630064	
1981.348804	-1.630132	
1981.350570	-1.629991	
1981.352075	-1.630052	
1981.353829	-1.630076	
1981.355335	-1.630040	
1981.357080	-1.630096	
1981.358602	-1.630104	
1981.360330	-1.629955	
1981.361860	-1.630100	
1981.363577	-1.629995	
1981.365125	-1.630092	
1981.366828	-1.629971	
1981.368383	-1.630108	
1981.370074	-1.629939	
1981.371637	-1.630092	
1981.373301	-1.629967	
1981.374891	-1.630112	
1981.376550	-1.630015	
1981.378150	-1.630104	
1981.379780	-1.630035	
1981.381412	-1.630156	
1981.383029	-1.629975	
1981.384674	-1.630104	
1981.386278	-1.630007	
1981.387938	-1.630048	
1981.389536	-1.630060	
1981.391208	-1.630172	
1981.392779	-1.630072	
1981.394483	-1.630132	
1981.396053	-1.629987	
1981.397751	-1.630112	
1981.399299	-1.629979	
1981.400978	-1.630104	
1981.402539	-1.630100	
1981.404269	-1.630052	
1981.405794	-1.630100	
1981.407531	-1.630136	
1981.409026	-1.630128	
1981.410790	-1.630120	
1981.412279	-1.630068	
1981.414072	-1.630036	
1981.415561	-1.630189	
1981.417364	-1.630031	
1981.418848	-1.630116	
1981.420641	-1.630052	
1981.422121	-1.630164	
1981.423719	-1.630088	
1981.425249	-1.630156	
1981.426801	-1.630040	
1981.428403	-1.630048	
1981.429888	-1.630124	
1981.431542	-1.630168	
1981.433039	-1.630144	
1981.434682	-1.630120	
1981.436176	-1.630104	
1981.437886	-1.630088	
1981.439368	-1.630132	
1981.441070	-1.630193	
1981.442549	-1.630027	
1981.444280	-1.630076	
1981.445779	-1.630128	
1981.447503	-1.630108	
1981.448987	-1.630060	
1981.450691	-1.630056	
1981.452169	-1.630068	
1981.453957	-1.630092	
1981.455434	-1.630189	
1981.457185	-1.630104	
1981.458680	-1.630140	
1981.460419	-1.630108	
1981.461940	-1.630076	
1981.463688	-1.630072	
1981.465211	-1.630031	
1981.466925	-1.630156	
1981.468470	-1.630132	
1981.470179	-1.630031	
1981.471732	-1.630172	
1981.473425	-1.630076	
1981.474981	-1.630261	
1981.476641	-1.630015	
1981.478241	-1.630172	
1981.479919	-1.630003	
1981.481502	-1.630148	
1981.483145	-1.630056	
1981.484753	-1.630241	
1981.486383	-1.630060	
1981.488013	-1.630172	
1981.489632	-1.630031	
1981.491294	-1.630124	
1981.492908	-1.630076	
1981.494546	-1.630213	
1981.496146	-1.630044	
1981.497812	-1.630156	
1981.499388	-1.630076	
1981.501084	-1.630104	
1981.502644	-1.629987	
1981.504353	-1.630176	
1981.505914	-1.630039	
1981.507610	-1.630164	
1981.509156	-1.630064	
1981.510868	-1.630084	
1981.512370	-1.630092	
1981.514147	-1.630124	
1981.515626	-1.630092	
1981.517403	-1.630156	
1981.518885	-1.630040	
1981.520646	-1.630144	
1981.522133	-1.630084	
1981.523900	-1.630156	
1981.525397	-1.630205	
1981.527168	-1.630100	
1981.528671	-1.630136	
1981.530417	-1.630031	
1981.531934	-1.630080	
1981.533486	-1.630136	
1981.535071	-1.630180	
1981.536565	-1.630068	
1981.538236	-1.630193	
1981.539719	-1.630039	
1981.541350	-1.630096	
1981.542878	-1.630148	
1981.544515	-1.630160	
1981.545992	-1.630164	
1981.547625	-1.630112	
1981.549104	-1.630084	
1981.550816	-1.630152	
1981.552300	-1.630124	
1981.553988	-1.630168	
1981.555484	-1.630176	
1981.557177	-1.630104	
1981.558689	-1.630176	
1981.560360	-1.630096	
1981.561888	-1.630112	
1981.563593	-1.629999	
1981.565129	-1.630160	
1981.566824	-1.630003	
1981.568376	-1.630233	
1981.570062	-1.630092	
1981.571633	-1.630197	
1981.573312	-1.630044	
1981.574899	-1.630168	
1981.576552	-1.630048	
1981.578137	-1.630193	
1981.579785	-1.630023	
1981.581397	-1.630160	
1981.583033	-1.629971	
1981.584666	-1.630164	
1981.586270	-1.630031	
1981.587949	-1.630176	
1981.589553	-1.629975	
1981.591205	-1.630084	
1981.592804	-1.630003	
1981.594470	-1.630197	
1981.596050	-1.630080	
1981.597744	-1.630217	
1981.599292	-1.630080	
1981.600985	-1.630128	
1981.602522	-1.630092	
1981.604243	-1.630108	
1981.605759	-1.630088	
1981.607502	-1.630035	
1981.608988	-1.630023	
1981.610784	-1.630140	
1981.612263	-1.630076	
1981.614038	-1.630040	
1981.615522	-1.630048	
1981.617300	-1.630088	
1981.618781	-1.630120	
1981.620552	-1.630027	
1981.622051	-1.630011	
1981.623823	-1.630056	
1981.625331	-1.630056	
1981.627072	-1.630015	
1981.628598	-1.630076	
1981.630329	-1.629959	
1981.631859	-1.630060	
1981.633571	-1.630048	
1981.635102	-1.630148	
1981.636784	-1.629999	
1981.638343	-1.630136	
1981.640015	-1.629947	
1981.641627	-1.630168	
1981.643125	-1.630124	
1981.644771	-1.630124	
1981.646297	-1.630039	
1981.647935	-1.630100	
1981.649429	-1.630100	
1981.651086	-1.630056	
1981.652562	-1.630084	
1981.654212	-1.630051	
1981.655701	-1.630160	
1981.657339	-1.630100	
1981.658823	-1.630100	
1981.660521	-1.629991	
1981.662013	-1.630152	
1981.663692	-1.630035	
1981.665221	-1.630205	
1981.666863	-1.629995	
1981.668410	-1.630007	
1981.670021	-1.629500	
1981.671609	-1.597201	
1981.673193	-1.533420	
1981.674783	-1.470381	
1981.676435	-1.424531	
1981.678024	-1.395043	
1981.679664	-1.352943	
1981.681305	-1.293904	
1981.682891	-1.261714	
1981.684585	-1.227296	
1981.686166	-1.164914	
1981.687854	-1.101012	
1981.689435	-1.052133	
1981.691120	-0.987796	
1981.692707	-0.930353	
1981.694416	-0.890686	
1981.695963	-0.859728	
1981.697680	-0.805837	
1981.699219	-0.766710	
1981.700930	-0.722250	
1981.702463	-0.668536	
1981.704179	-0.603112	
1981.705688	-0.560363	
1981.707469	-0.506751	
1981.708953	-0.448642	
1981.710718	-0.404778	
1981.712200	-0.373010	
1981.713997	-0.312517	
1981.715482	-0.273180	
1981.717255	-0.225727	
1981.718737	-0.175961	
1981.720483	-0.109530	
1981.721999	-0.061041	
1981.723728	-0.010784	
1981.725248	0.046479	
1981.726970	0.093779	
1981.728502	0.125265	
1981.730202	0.168235	
1981.731749	0.228414	
1981.733440	0.259504	
1981.735007	0.304481	
1981.736682	0.375214	
1981.738256	0.427079	
1981.739944	0.453512	
1981.741521	0.521003	
1981.743193	0.570144	
1981.744789	0.600337	
1981.746425	0.633059	
1981.748038	0.687300	
1981.749655	0.708364	
1981.751293	0.765611	
1981.752914	0.828880	
1981.754553	0.881723	
1981.756043	0.912624	
1981.757694	0.970221	
1981.759181	1.027697	
1981.760819	1.069237	
1981.762307	1.098898	
1981.763952	1.141352	
1981.765431	1.190498	
1981.767034	1.224815	
1981.768564	1.265976	
1981.770113	1.324322	
1981.771683	1.380763	
1981.773298	1.404909	
1981.774889	1.454953	
1981.776460	1.503160	
1981.778077	1.538593	
1981.779611	1.560306	
1981.781267	1.606099	
1981.782746	1.619240	
1981.784484	1.625049	
1981.786084	1.625202	
1981.787749	1.625041	
1981.789317	1.625210	
1981.791006	1.625121	
1981.792572	1.625214	
1981.794284	1.625166	
1981.795841	1.625210	
1981.797549	1.625145	
1981.799055	1.625198	
1981.800806	1.625154	
1981.802291	1.625117	
1981.804067	1.625198	
1981.805565	1.625178	
1981.807354	1.625089	
1981.808837	1.625105	
1981.810618	1.625145	
1981.812101	1.625161	
1981.813875	1.625166	
1981.815371	1.625125	
1981.817126	1.625226	
1981.818644	1.625210	
1981.820392	1.625154	
1981.821912	1.625142	
1981.823644	1.625274	
1981.825168	1.625077	
1981.826891	1.625206	
1981.828434	1.625025	
1981.830140	1.625230	
1981.831697	1.625097	
1981.833383	1.625186	
1981.834942	1.625182	
1981.836606	1.625190	
1981.838180	1.625097	
1981.839829	1.625182	
1981.841421	1.625153	
1981.843050	1.625206	
1981.844671	1.625133	
1981.846287	1.625194	
1981.847964	1.625049	
1981.849575	1.625250	
1981.851232	1.625065	
1981.852839	1.625222	
1981.854503	1.625182	
1981.856075	1.625125	
1981.857756	1.625206	
1981.859319	1.625206	
1981.861011	1.625194	
1981.862564	1.625238	
1981.864271	1.625089	
1981.865756	1.625166	
1981.867317	1.625117	
1981.868821	1.625133	
1981.870421	1.625282	
1981.871949	1.625113	
1981.873519	1.625158	
1981.875067	1.625170	
1981.876571	1.625157	
1981.878240	1.625226	
1981.879732	1.625141	
1981.881358	1.625162	
1981.882896	1.625218	
1981.884564	1.625089	
1981.886047	1.625141	
1981.887773	1.625149	
1981.889252	1.625210	
1981.890966	1.625153	
1981.892448	1.625162	
1981.894153	1.625121	
1981.895638	1.625170	
1981.897336	1.625238	
1981.898827	1.625121	
1981.900593	1.625266	
1981.902075	1.625250	
1981.903839	1.625182	
1981.905341	1.625057	
1981.907116	1.625137	
1981.908613	1.625093	
1981.910345	1.625165	
1981.911866	1.625117	
1981.913582	1.625230	
1981.915116	1.625121	
1981.916834	1.625214	
1981.918399	1.625153	
1981.920094	1.625182	
1981.921648	1.625133	
1981.923330	1.625242	
1981.924910	1.625162	
1981.926577	1.625190	
1981.928161	1.625133	
1981.929827	1.625242	
1981.931428	1.625129	
1981.933074	1.625254	
1981.934685	1.625150	
1981.936320	1.625214	
1981.937942	1.625153	
1981.939555	1.625323	
1981.941235	1.625093	
1981.942823	1.625202	
1981.944493	1.625117	
1981.946074	1.625194	
1981.947748	1.625182	
1981.949337	1.625182	
1981.951004	1.625129	
1981.952557	1.625202	
1981.954262	1.625137	
1981.955801	1.625182	
1981.957529	1.625105	
1981.959042	1.625202	
1981.960787	1.625214	
1981.962265	1.625166	
1981.964019	1.625154	
1981.965500	1.625158	
1981.967280	1.625290	
1981.968774	1.625117	
1981.970566	1.625242	
1981.972047	1.625141	
1981.973825	1.625157	
1981.975341	1.625089	
1981.976834	1.625073	
1981.978404	1.625073	
1981.979905	1.625178	
1981.981574	1.625153	
1981.983052	1.625210	
1981.984680	1.625174	
1981.986204	1.625238	
1981.987840	1.625157	
1981.989317	1.625141	
1981.990960	1.625198	
1981.992443	1.625145	
1981.994158	1.625077	
1981.995639	1.625182	
1981.997340	1.625218	
1981.998836	1.625057	
1982.000541	1.625133	
1982.002040	1.625081	
1982.003735	1.625149	
1982.005239	1.625154	
1982.006889	1.625198	
1982.008426	1.625097	
1982.010129	1.625161	
1982.011684	1.625149	
1982.013352	1.625101	
1982.014916	1.625101	
1982.016579	1.625198	
1982.018167	1.625065	
1982.019835	1.625202	
1982.021425	1.625142	
1982.023075	1.625113	
1982.024670	1.625125	
1982.026295	1.625266	
1982.027951	1.625149	
1982.029547	1.625190	
1982.031218	1.625013	
1982.032801	1.625170	
1982.034479	1.625117	
1982.036072	1.625081	
1982.037749	1.625101	
1982.039338	1.625250	
1982.041039	1.625033	
1982.042593	1.625186	
1982.044303	1.625057	
1982.045841	1.625121	
1982.047547	1.624992	
1982.049088	1.625145	
1982.050808	1.625174	
1982.052297	1.625194	
1982.054082	1.625166	
1982.055566	1.625198	
1982.057363	1.625097	
1982.058850	1.625089	
1982.060617	1.625170	
1982.062102	1.625206	
1982.063873	1.625166	
1982.065363	1.625121	
1982.067141	1.625142	
1982.068641	1.625161	
1982.070389	1.625210	
1982.071900	1.625037	
1982.073633	1.625117	
1982.075159	1.625117	
1982.076861	1.625182	
1982.078399	1.625178	
1982.080108	1.625242	
1982.081664	1.625077	
1982.083365	1.625053	
1982.084954	1.624706	
1982.086453	1.622044	
1982.088112	1.611993	
1982.089617	1.568133	
1982.091279	1.545276	
1982.092777	1.523201	
1982.094420	1.490914	
1982.095898	1.443315	
1982.097535	1.437804	
1982.099016	1.399974	
1982.100653	1.372799	
1982.102136	1.355208	
1982.103839	1.344839	
1982.105329	1.321177	
1982.107003	1.287915	
1982.108530	1.274408	
1982.110172	1.236590	
1982.111722	1.207699	
1982.113348	1.173011	
1982.114931	1.154650	
1982.116633	1.113162	
1982.118202	1.081910	
1982.119871	1.073648	
1982.121447	1.053362	
1982.123111	1.014742	
1982.124714	1.003076	
1982.126327	0.968328	
1982.127960	0.932286	
1982.129588	0.887749	
1982.131260	0.867253	
1982.132852	0.821133	
1982.134497	0.790139	
1982.136102	0.774300	
1982.137787	0.766807	
1982.139349	0.724409	
1982.141050	0.703369	
1982.142620	0.687377	
1982.144339	0.649257	
1982.145904	0.605876	
1982.147624	0.593263	
1982.149187	0.548190	
1982.150900	0.514763	
1982.152456	0.502271	
1982.154174	0.486190	
1982.155691	0.458274	
1982.157444	0.440566	
1982.158935	0.412532	
1982.160717	0.389760	
1982.162216	0.354118	
1982.164008	0.331587	
1982.165495	0.309838	
1982.167252	0.280053	
1982.168733	0.266937	
1982.170496	0.253301	
1982.171988	0.226090	
1982.173758	0.213912	
1982.175276	0.199720	
1982.177043	0.179953	
1982.178559	0.148254	
1982.180289	0.119593	
1982.181813	0.095927	
1982.183540	0.065980	
1982.185081	0.042080	
1982.186796	0.047172	
1982.188350	0.033177	
1982.190048	0.004524	
1982.191604	-0.007883	
1982.193281	-0.034402	
1982.194876	-0.068876	
1982.196378	-0.094057	
1982.198009	-0.104051	
1982.199546	-0.135118	
1982.201180	-0.153298	
1982.202667	-0.165664	
1982.204320	-0.168174	
1982.205793	-0.188836	
1982.207438	-0.205170	
1982.208919	-0.221255	
1982.210567	-0.246481	
1982.212044	-0.275384	
1982.213719	-0.295936	
1982.215233	-0.314829	
1982.216902	-0.341613	
1982.218450	-0.359084	
1982.220065	-0.362972	
1982.221633	-0.372321	
1982.223225	-0.401950	
1982.224822	-0.413950	
1982.226487	-0.427006	
1982.228075	-0.458479	
1982.229729	-0.492108	
1982.231323	-0.510412	
1982.232954	-0.544355	
1982.234598	-0.569536	
1982.236218	-0.580235	
1982.237880	-0.592965	
1982.239475	-0.624962	
1982.241122	-0.640168	
1982.242709	-0.659525	
1982.244394	-0.691820	
1982.245967	-0.734105	
1982.247676	-0.753819	
1982.249233	-0.788294	
1982.250932	-0.816468	
1982.252482	-0.835502	
1982.254178	-0.846660	
1982.255688	-0.882617	
1982.257430	-0.903262	
1982.258920	-0.925712	
1982.260692	-0.962007	
1982.262171	-0.997895	
1982.263944	-1.027270	
1982.265425	-1.053490	
1982.267205	-1.092271	
1982.268688	-1.116263	
1982.270454	-1.128042	
1982.271956	-1.158412	
1982.273725	-1.183988	
1982.275234	-1.205942	
1982.276961	-1.233983	
1982.278476	-1.267946	
1982.280196	-1.304309	
1982.281742	-1.331678	
1982.283442	-1.371526	
1982.285000	-1.394226	
1982.286704	-1.409130	
1982.288275	-1.432962	
1982.289942	-1.465563	
1982.291508	-1.479763	
1982.293168	-1.512143	
1982.294747	-1.546722	
1982.296393	-1.585382	
1982.297998	-1.602812	
1982.299607	-1.624255	
1982.301256	-1.629975	
1982.302886	-1.629951	
1982.304512	-1.630011	
1982.305998	-1.629963	
1982.307635	-1.630072	
1982.309122	-1.630052	
1982.310769	-1.630039	
1982.312269	-1.630100	
1982.313916	-1.629975	
1982.315411	-1.630015	
1982.317002	-1.630060	
1982.318525	-1.630044	
1982.320095	-1.630007	
1982.321665	-1.630112	
1982.323267	-1.629999	
1982.324856	-1.630044	
1982.326434	-1.630035	
1982.328047	-1.630056	
1982.329606	-1.629995	
1982.331271	-1.630092	
1982.332750	-1.630019	
1982.334473	-1.630080	
1982.336038	-1.629991	
1982.337723	-1.630052	
1982.339296	-1.630023	
1982.340969	-1.630064	
1982.342523	-1.629967	
1982.344232	-1.630056	
1982.345781	-1.630011	
1982.347493	-1.630084	
1982.348990	-1.630056	
1982.350747	-1.630048	
1982.352227	-1.630052	
1982.353999	-1.630068	
1982.355491	-1.630019	
1982.357284	-1.630015	
1982.358759	-1.630100	
1982.360550	-1.630007	
1982.362037	-1.630080	
1982.363801	-1.630048	
1982.365295	-1.630128	
1982.367036	-1.630044	
1982.368550	-1.630060	
1982.370275	-1.630048	
1982.371795	-1.630068	
1982.373499	-1.630048	
1982.375045	-1.630176	
1982.376734	-1.630044	
1982.378280	-1.630132	
1982.379966	-1.629931	
1982.381542	-1.630048	
1982.383200	-1.630056	
1982.384787	-1.630044	
1982.386424	-1.630019	
1982.388018	-1.630197	
1982.389664	-1.629995	
1982.391271	-1.630185	
1982.392881	-1.630052	
1982.394512	-1.630088	
1982.396118	-1.629983	
1982.397785	-1.630132	
1982.399365	-1.630007	
1982.401066	-1.630120	
1982.402642	-1.629971	
1982.404325	-1.630148	
1982.405896	-1.629943	
1982.407600	-1.630148	
1982.409154	-1.630060	
1982.410866	-1.630088	
1982.412401	-1.630007	
1982.414136	-1.630164	
1982.415621	-1.630100	
1982.417180	-1.630128	
1982.418679	-1.630092	
1982.420276	-1.630152	
1982.421816	-1.630088	
1982.423357	-1.630205	
1982.424972	-1.630128	
1982.426458	-1.630060	
1982.428103	-1.630048	
1982.429602	-1.630144	
1982.431258	-1.630096	
1982.432747	-1.630124	
1982.434457	-1.630156	
1982.435933	-1.630056	
1982.437648	-1.630152	
1982.439133	-1.630088	
1982.440845	-1.630221	
1982.442340	-1.630164	
1982.444061	-1.630104	
1982.445541	-1.629979	
1982.447337	-1.630104	
1982.448816	-1.630076	
1982.450583	-1.630104	
1982.452063	-1.630039	
1982.453845	-1.630088	
1982.455335	-1.630168	
1982.457118	-1.630164	
1982.458613	-1.630205	
1982.460348	-1.630160	
1982.461859	-1.630225	
1982.463576	-1.630152	
1982.465107	-1.630092	
1982.466802	-1.630084	
1982.468340	-1.630168	
1982.470028	-1.630048	
1982.471590	-1.630128	
1982.473267	-1.630007	
1982.474845	-1.630185	
1982.476510	-1.630080	
1982.478092	-1.630064	
1982.479756	-1.629955	
1982.481363	-1.630128	
1982.483000	-1.629907	
1982.484622	-1.630152	
1982.486244	-1.630047	
1982.487886	-1.630140	
1982.489484	-1.629995	
1982.491118	-1.630076	
1982.492719	-1.630036	
1982.494397	-1.630120	
1982.495961	-1.630003	
1982.497661	-1.630044	
1982.499223	-1.630039	
1982.500916	-1.630031	
1982.502478	-1.630040	
1982.504152	-1.630112	
1982.505687	-1.630116	
1982.507422	-1.630092	
1982.508905	-1.630185	
1982.510683	-1.630003	
1982.512168	-1.630027	
1982.513941	-1.630088	
1982.515419	-1.630104	
1982.517186	-1.630019	
1982.518667	-1.630124	
1982.520413	-1.630052	
1982.521926	-1.630048	
1982.523697	-1.630128	
1982.525205	-1.630128	
1982.526772	-1.630080	
1982.528332	-1.630128	
1982.529839	-1.629975	
1982.531501	-1.630160	
1982.532997	-1.630023	
1982.534635	-1.630112	
1982.536168	-1.630015	
1982.537815	-1.630132	
1982.539297	-1.630108	
1982.540954	-1.630088	
1982.542424	-1.630148	
1982.544128	-1.630164	
1982.545609	-1.630116	
1982.547310	-1.630096	
1982.548797	-1.630072	
1982.550496	-1.630052	
1982.551985	-1.630148	
1982.553669	-1.630007	
1982.555190	-1.630108	
1982.556952	-1.629911	
1982.558478	-1.630140	
1982.560190	-1.630019	
1982.561719	-1.630052	
1982.563429	-1.630011	
1982.564985	-1.630148	
1982.566697	-1.630019	
1982.568265	-1.630152	
1982.569945	-1.629991	
1982.571526	-1.630193	
1982.573189	-1.630040	
1982.574763	-1.630092	
1982.576406	-1.630015	
1982.577997	-1.630064	
1982.579625	-1.630044	
1982.581248	-1.630148	
1982.582859	-1.630007	
1982.584519	-1.630116	
1982.586122	-1.629939	
1982.587762	-1.630104	
1982.589346	-1.629903	
1982.591019	-1.630144	
1982.592595	-1.630036	
1982.594300	-1.630096	
1982.595854	-1.630007	
1982.597564	-1.630096	
1982.599117	-1.630100	
1982.600810	-1.630011	
1982.602318	-1.630023	
1982.604061	-1.630048	
1982.605554	-1.629919	
1982.607347	-1.630019	
1982.608827	-1.629979	
1982.610600	-1.630084	
1982.612085	-1.629915	
1982.613878	-1.629540	
1982.615365	-1.616057	
1982.617143	-1.566078	
1982.618633	-1.522858	
1982.620401	-1.472097	
1982.621892	-1.432225	
1982.623639	-1.393432	
1982.625151	-1.354962	
1982.626865	-1.319690	
1982.628397	-1.291318	
1982.630094	-1.260578	
1982.631645	-1.226462	
1982.633353	-1.203831	
1982.634940	-1.172257	
1982.636430	-1.126109	
1982.638085	-1.073725	
1982.639585	-1.043939	
1982.641215	-0.989670	
1982.642738	-0.952375	
1982.644367	-0.925744	
1982.645861	-0.905043	
1982.647501	-0.863865	
1982.648983	-0.834253	
1982.650628	-0.798095	
1982.652119	-0.757437	
1982.653824	-0.704851	
1982.655304	-0.670147	
1982.656984	-0.631012	
1982.658489	-0.586769	
1982.660144	-0.549374	
1982.661699	-0.530711	
1982.663318	-0.499987	
1982.664909	-0.452908	
1982.666581	-0.424182	
1982.668170	-0.387238	
1982.669838	-0.336099	
1982.671411	-0.293157	
1982.673072	-0.260745	
1982.674666	-0.215567	
1982.676290	-0.171800	
1982.677912	-0.146655	
1982.679518	-0.120700	
1982.681195	-0.068558	
1982.682789	-0.044787	
1982.684451	-0.004608	
1982.686033	0.054056	
1982.687706	0.109566	
1982.689285	0.134546	
1982.690978	0.181367	
1982.692531	0.219028	
1982.694235	0.261603	
1982.695794	0.275340	
1982.697506	0.318906	
1982.699045	0.346492	
1982.700761	0.377047	
1982.702284	0.422724	
1982.704042	0.472550	
1982.705526	0.507883	
1982.707303	0.551808	
1982.708790	0.592280	
1982.710553	0.628394	
1982.712039	0.654933	
1982.713823	0.692315	
1982.715316	0.728163	
1982.717093	0.772841	
1982.718586	0.818011	
1982.720361	0.874705	
1982.721860	0.920552	
1982.723624	0.963087	
1982.725144	1.005936	
1982.726887	1.035033	
1982.728429	1.053708	
1982.730150	1.093661	
1982.731684	1.125936	
1982.733376	1.148865	
1982.734924	1.179581	
1982.736628	1.242092	
1982.738199	1.276877	
1982.739875	1.303573	
1982.741484	1.347111	
1982.742977	1.375333	
1982.744554	1.395773	
1982.746082	1.412430	
1982.747717	1.451090	
1982.749196	1.470011	
1982.750849	1.504409	
1982.752332	1.546162	
1982.753986	1.586341	
1982.755477	1.611800	
1982.757090	1.622028	
1982.758603	1.625097	
1982.760189	1.625166	
1982.761729	1.625049	
1982.763359	1.625113	
1982.764923	1.625077	
1982.766530	1.625258	
1982.768112	1.625085	
1982.769678	1.625178	
1982.771283	1.625162	
1982.772840	1.625129	
1982.774522	1.625109	
1982.776121	1.625109	
1982.777793	1.625000	
1982.779370	1.625145	
1982.781045	1.625149	
1982.782637	1.625202	
1982.784300	1.625162	
1982.785873	1.625145	
1982.787586	1.625113	
1982.789128	1.625170	
1982.790839	1.625137	
1982.792385	1.625234	
1982.794103	1.625077	
1982.795611	1.625162	
1982.797367	1.625133	
1982.798860	1.625202	
1982.800650	1.625186	
1982.802130	1.625178	
1982.803918	1.625141	
1982.805397	1.625194	
1982.807184	1.625141	
1982.808673	1.625145	
1982.810427	1.625210	
1982.811928	1.625097	
1982.813686	1.625121	
1982.815194	1.625033	
1982.816929	1.625166	
1982.818442	1.625093	
1982.820151	1.625218	
1982.821692	1.625178	
1982.823400	1.625178	
1982.824948	1.625101	
1982.826639	1.625157	
1982.828206	1.625166	
1982.829900	1.625170	
1982.831472	1.625093	
1982.833144	1.625242	
1982.834723	1.625182	
1982.836384	1.625246	
1982.837983	1.625145	
1982.839624	1.625174	
1982.841244	1.625174	
1982.842859	1.625202	
1982.844526	1.625077	
1982.846126	1.625121	
1982.847781	1.625149	
1982.849385	1.625262	
1982.851064	1.625077	
1982.852538	1.625041	
1982.854123	1.625077	
1982.855603	1.625154	
1982.857248	1.625230	
1982.858723	1.625161	
1982.860350	1.625198	
1982.861859	1.625141	
1982.863418	1.625198	
1982.864978	1.625133	
1982.866488	1.625113	
1982.868118	1.625077	
1982.869681	1.625230	
1982.871294	1.625174	
1982.872839	1.625202	
1982.874512	1.625166	
1982.875989	1.625210	
1982.877712	1.625141	
1982.879192	1.625214	
1982.880890	1.625218	
1982.882363	1.625037	
1982.884092	1.625133	
1982.885602	1.625158	
1982.887369	1.625129	
1982.888847	1.625254	
1982.890627	1.625137	
1982.892106	1.625162	
1982.893880	1.625105	
1982.895369	1.625214	
1982.897147	1.625093	
1982.898633	1.625158	
1982.900405	1.625178	
1982.901902	1.625230	
1982.903667	1.625218	
1982.905173	1.625174	
1982.906904	1.625190	
1982.908426	1.625214	
1982.910137	1.625258	
1982.911677	1.625153	
1982.913383	1.625282	
1982.914944	1.625153	
1982.916631	1.625210	
1982.918189	1.625109	
